Ah_balance (normalized)	Ah_balance (mAh)	Voltage - fit (V)	Voltage -  interpolate (V)	dQ/dV (1/V)	Temperature (°C)	Temperature - diff (°C)	Current (C)	R_DC 0ms (mOhm)	R_DC 50ms (mOhm)	R_DC 50 ms PEC (mOhm)
0.0003	20.61	4.1580	4.1597	-0.2120	25.83	0.01	-0.750			
0.0010	62.10	4.1550	4.1554	-0.2248	25.83	0.01	-0.750			
0.0017	105.84	4.1520	4.1519	-0.2448	25.83	0.01	-0.750			
0.0024	154.43	4.1490	4.1490	-0.2724	25.83	0.01	-0.750			
0.0033	209.42	4.1460	4.1459	-0.3004	25.83	0.01	-0.750			
0.0042	268.45	4.1430	4.1430	-0.3279	25.82	0.00	-0.750			
0.0052	334.98	4.1400	4.1399	-0.3606	25.82	0.00	-0.750			
0.0064	407.87	4.1370	4.1370	-0.3898	25.82	-0.00	-0.750			
0.0076	485.60	4.1340	4.1340	-0.4189	25.81	-0.01	-0.750			
0.0089	568.92	4.1310	4.1310	-0.4455	25.81	-0.01	-0.750			
0.0103	657.50	4.1280	4.1281	-0.4714	25.81	-0.01	-0.750			
0.0117	751.48	4.1250	4.1250	-0.4960	25.80	-0.02	-0.750			
0.0133	849.22	4.1220	4.1221	-0.5164	25.80	-0.02	-0.750			
0.0149	951.12	4.1190	4.1190	-0.5332	25.80	-0.02	-0.750			
0.0165	1055.72	4.1160	4.1160	-0.5498	25.79	-0.03	-0.750			
0.0182	1163.24	4.1130	4.1131	-0.5631	25.79	-0.03	-0.750			
0.0199	1273.15	4.1100	4.1100	-0.5744	25.79	-0.03	-0.750			
0.0216	1385.01	4.1070	4.1070	-0.5860	25.78	-0.04	-0.750			
0.0234	1497.74	4.1040	4.1040	-0.5993	25.78	-0.04	-0.750			
0.0252	1614.82	4.1010	4.1010	-0.6079	25.78	-0.04	-0.750			
0.0271	1732.91	4.0980	4.0980	-0.6161	25.78	-0.04	-0.750			
0.0289	1852.45	4.0950	4.0950	-0.6218	25.77	-0.05	-0.750			
0.0308	1972.96	4.0920	4.0922	-0.6267	25.77	-0.05	-0.750			
0.0327	2093.74	4.0890	4.0890	-0.6341	25.77	-0.05	-0.750			
0.0346	2214.50	4.0860	4.0860	-0.6416	25.77	-0.05	-0.750			
0.0365	2337.43	4.0830	4.0830	-0.6505	25.77	-0.05	-0.750			
0.0385	2465.68	4.0800	4.0799	-0.6609	25.77	-0.05	-0.750			
0.0405	2593.99	4.0770	4.0769	-0.6638	25.77	-0.05	-0.750			
0.0426	2723.54	4.0740	4.0742	-0.6680	25.77	-0.05	-0.750			
0.0446	2851.83	4.0710	4.0709	-0.6687	25.77	-0.05	-0.750			
0.0466	2979.48	4.0680	4.0679	-0.6680	25.77	-0.05	-0.750			
0.0485	3106.69	4.0650	4.0650	-0.6726	25.77	-0.05	-0.750			
0.0505	3234.51	4.0620	4.0620	-0.6750	25.76	-0.06	-0.750			
0.0526	3366.84	4.0590	4.0590	-0.6843	25.76	-0.06	-0.750			
0.0547	3499.06	4.0560	4.0559	-0.6874	25.76	-0.06	-0.750			
0.0567	3631.27	4.0530	4.0530	-0.6938	25.76	-0.06	-0.750			
0.0588	3764.83	4.0500	4.0500	-0.6996	25.76	-0.06	-0.750			
0.0610	3900.88	4.0470	4.0470	-0.7025	25.76	-0.06	-0.750			
0.0631	4036.23	4.0440	4.0439	-0.7023	25.75	-0.07	-0.750			
0.0652	4172.30	4.0410	4.0410	-0.7002	25.75	-0.07	-0.750			
0.0673	4307.09	4.0380	4.0382	-0.6988	25.75	-0.07	-0.750			
0.0694	4439.94	4.0350	4.0349	-0.7010	25.75	-0.07	-0.750			
0.0715	4573.29	4.0320	4.0319	-0.6973	25.76	-0.06	-0.750			
0.0735	4706.68	4.0290	4.0290	-0.7043	25.76	-0.06	-0.750			
0.0757	4841.75	4.0260	4.0260	-0.7096	25.76	-0.06	-0.750			
0.0778	4980.80	4.0230	4.0230	-0.7150	25.77	-0.05	-0.750			
0.0800	5119.32	4.0200	4.0201	-0.7166	25.77	-0.05	-0.750			
0.0821	5256.65	4.0170	4.0170	-0.7183	25.77	-0.05	-0.750			
0.0843	5394.69	4.0140	4.0140	-0.7170	25.77	-0.05	-0.750			
0.0865	5533.16	4.0110	4.0110	-0.7191	25.77	-0.05	-0.750			
0.0886	5670.26	4.0080	4.0080	-0.7173	25.77	-0.05	-0.750			
0.0908	5808.71	4.0050	4.0050	-0.7225	25.77	-0.05	-0.750			
0.0929	5946.92	4.0020	4.0022	-0.7275	25.77	-0.05	-0.750			
0.0951	6086.55	3.9990	3.9990	-0.7312	25.77	-0.05	-0.750			
0.0973	6226.97	3.9960	3.9959	-0.7340	25.77	-0.05	-0.750			
0.0995	6369.54	3.9930	3.9930	-0.7374	25.77	-0.05	-0.750			
0.1018	6512.48	3.9900	3.9901	-0.7420	25.77	-0.05	-0.750			
0.1040	6654.13	3.9870	3.9870	-0.7399	25.77	-0.05	-0.750			
0.1062	6796.86	3.9840	3.9840	-0.7375	25.77	-0.05	-0.750			
0.1084	6938.69	3.9810	3.9810	-0.7351	25.77	-0.05	-0.750			
0.1106	7077.99	3.9780	3.9780	-0.7437	25.78	-0.04	-0.750			
0.1128	7221.15	3.9750	3.9750	-0.7454	25.78	-0.04	-0.750			
0.1151	7366.12	3.9720	3.9718	-0.7491	25.79	-0.03	-0.750			
0.1174	7510.82	3.9690	3.9690	-0.7510	25.79	-0.03	-0.750			
0.1196	7655.03	3.9660	3.9660	-0.7551	25.79	-0.03	-0.750			
0.1219	7800.40	3.9630	3.9630	-0.7567	25.80	-0.02	-0.750			
0.1242	7946.07	3.9600	3.9599	-0.7590	25.80	-0.02	-0.750			
0.1264	8090.54	3.9570	3.9570	-0.7570	25.80	-0.02	-0.750			
0.1287	8238.28	3.9540	3.9540	-0.7619	25.81	-0.01	-0.750			
0.1310	8384.63	3.9510	3.9511	-0.7597	25.81	-0.01	-0.750			
0.1333	8530.78	3.9480	3.9480	-0.7601	25.81	-0.01	-0.750			
0.1356	8675.83	3.9450	3.9450	-0.7618	25.81	-0.01	-0.750			
0.1378	8821.06	3.9420	3.9420	-0.7664	25.82	-0.00	-0.750			
0.1402	8970.21	3.9390	3.9389	-0.7686	25.82	-0.00	-0.750			
0.1425	9117.72	3.9360	3.9361	-0.7704	25.82	-0.00	-0.750			
0.1448	9266.07	3.9330	3.9330	-0.7745	25.82	0.00	-0.750			
0.1471	9414.84	3.9300	3.9300	-0.7791	25.82	0.00	-0.750			
0.1494	9563.88	3.9270	3.9269	-0.7771	25.82	0.00	-0.750			
0.1518	9713.10	3.9240	3.9240	-0.7787	25.82	0.00	-0.750			
0.1541	9863.92	3.9210	3.9210	-0.7782	25.82	0.00	-0.750			
0.1565	10014.46	3.9180	3.9179	-0.7793	25.82	0.00	-0.750			
0.1588	10161.66	3.9150	3.9151	-0.7843	25.83	0.01	-0.750			
0.1611	10312.82	3.9120	3.9120	-0.7860	25.83	0.01	-0.750			
0.1635	10463.74	3.9090	3.9089	-0.7876	25.83	0.01	-0.750			
0.1659	10616.74	3.9060	3.9059	-0.7919	25.84	0.02	-0.750			
0.1683	10769.26	3.9030	3.9032	-0.7932	25.84	0.02	-0.750			
0.1707	10921.97	3.9000	3.8999	-0.7942	25.84	0.02	-0.750			
0.1730	11073.85	3.8970	3.8970	-0.7981	25.84	0.02	-0.750			
0.1754	11227.09	3.8940	3.8940	-0.7950	25.85	0.03	-0.750			
0.1778	11380.80	3.8910	3.8909	-0.7999	25.85	0.03	-0.750			
0.1802	11534.36	3.8880	3.8882	-0.7970	25.85	0.03	-0.750			
0.1826	11686.85	3.8850	3.8850	-0.8011	25.85	0.03	-0.750			
0.1850	11840.14	3.8820	3.8820	-0.8089	25.86	0.04	-0.750			
0.1874	11995.80	3.8790	3.8789	-0.8087	25.86	0.04	-0.750			
0.1899	12152.27	3.8760	3.8760	-0.8056	25.87	0.05	-0.750			
0.1924	12310.42	3.8730	3.8732	-0.8079	25.87	0.05	-0.750			
0.1948	12464.64	3.8700	3.8700	-0.8023	25.87	0.05	-0.750			
0.1972	12618.28	3.8670	3.8669	-0.7993	25.88	0.06	-0.750			
0.1995	12769.15	3.8640	3.8640	-0.7945	25.88	0.06	-0.750			
0.2019	12919.20	3.8610	3.8611	-0.7911	25.88	0.06	-0.750			
0.2043	13073.02	3.8580	3.8580	-0.8014	25.89	0.07	-0.750			
0.2067	13226.95	3.8550	3.8550	-0.8044	25.89	0.07	-0.750			
0.2091	13381.18	3.8520	3.8520	-0.8080	25.89	0.07	-0.750			
0.2115	13538.58	3.8490	3.8490	-0.8059	25.89	0.07	-0.750			
0.2140	13694.10	3.8460	3.8460	-0.8073	25.89	0.07	-0.750			
0.2164	13850.12	3.8430	3.8430	-0.8035	25.89	0.07	-0.750			
0.2188	14003.66	3.8400	3.8400	-0.8001	25.89	0.07	-0.750			
0.2211	14153.21	3.8370	3.8369	-0.8072	25.90	0.08	-0.750			
0.2236	14309.79	3.8340	3.8340	-0.8054	25.90	0.08	-0.750			
0.2260	14465.88	3.8310	3.8308	-0.8047	25.90	0.08	-0.750			
0.2285	14622.51	3.8280	3.8280	-0.8039	25.91	0.09	-0.750			
0.2309	14777.26	3.8250	3.8252	-0.7996	25.91	0.09	-0.750			
0.2333	14930.77	3.8220	3.8219	-0.7961	25.91	0.09	-0.750			
0.2356	15079.51	3.8190	3.8190	-0.7908	25.92	0.10	-0.750			
0.2380	15230.79	3.8160	3.8159	-0.7798	25.92	0.10	-0.750			
0.2404	15383.20	3.8130	3.8130	-0.7873	25.93	0.11	-0.750			
0.2427	15535.00	3.8100	3.8100	-0.7858	25.93	0.11	-0.750			
0.2451	15685.03	3.8070	3.8070	-0.7799	25.93	0.11	-0.750			
0.2474	15834.00	3.8040	3.8039	-0.7778	25.94	0.12	-0.750			
0.2497	15981.98	3.8010	3.8011	-0.7674	25.94	0.12	-0.750			
0.2520	16130.78	3.7980	3.7979	-0.7597	25.94	0.12	-0.750			
0.2543	16276.04	3.7950	3.7951	-0.7557	25.95	0.13	-0.750			
0.2566	16419.22	3.7920	3.7919	-0.7414	25.95	0.13	-0.750			
0.2587	16558.66	3.7890	3.7890	-0.7413	25.96	0.14	-0.750			
0.2609	16699.12	3.7860	3.7860	-0.7464	25.96	0.14	-0.750			
0.2632	16844.89	3.7830	3.7829	-0.7466	25.96	0.14	-0.750			
0.2655	16990.24	3.7800	3.7798	-0.7508	25.97	0.15	-0.750			
0.2677	17135.56	3.7770	3.7774	-0.7533	25.97	0.15	-0.750			
0.2700	17279.64	3.7740	3.7739	-0.7473	25.97	0.15	-0.750			
0.2722	17422.87	3.7710	3.7709	-0.7499	25.97	0.15	-0.750			
0.2745	17565.61	3.7680	3.7679	-0.7404	25.97	0.15	-0.750			
0.2767	17707.87	3.7650	3.7651	-0.7431	25.97	0.15	-0.750			
0.2789	17848.81	3.7620	3.7620	-0.7454	25.97	0.15	-0.750			
0.2811	17991.67	3.7590	3.7590	-0.7423	25.97	0.15	-0.750			
0.2833	18132.34	3.7560	3.7559	-0.7485	25.97	0.15	-0.750			
0.2856	18276.88	3.7530	3.7530	-0.7481	25.98	0.16	-0.750			
0.2878	18420.16	3.7500	3.7502	-0.7486	25.98	0.16	-0.750			
0.2901	18565.85	3.7470	3.7469	-0.7611	25.99	0.17	-0.750			
0.2924	18711.54	3.7440	3.7442	-0.7623	25.99	0.17	-0.750			
0.2946	18857.31	3.7410	3.7408	-0.7708	25.99	0.17	-0.750			
0.2970	19005.70	3.7380	3.7380	-0.7855	26.00	0.18	-0.750			
0.2993	19157.38	3.7350	3.7350	-0.7908	26.00	0.18	-0.750			
0.3017	19309.97	3.7320	3.7320	-0.7949	26.00	0.18	-0.750			
0.3042	19466.11	3.7290	3.7290	-0.8068	26.01	0.19	-0.750			
0.3066	19619.97	3.7260	3.7260	-0.8157	26.01	0.19	-0.750			
0.3090	19777.33	3.7230	3.7229	-0.8341	26.01	0.19	-0.750			
0.3115	19938.94	3.7200	3.7200	-0.8439	26.01	0.19	-0.750			
0.3141	20102.50	3.7170	3.7169	-0.8589	26.01	0.19	-0.750			
0.3167	20270.58	3.7140	3.7140	-0.8759	26.01	0.19	-0.750			
0.3194	20441.09	3.7110	3.7108	-0.8936	26.01	0.19	-0.750			
0.3221	20612.80	3.7080	3.7080	-0.9161	26.01	0.19	-0.750			
0.3249	20791.58	3.7050	3.7048	-0.9215	26.01	0.19	-0.750			
0.3276	20969.10	3.7020	3.7019	-0.9349	26.01	0.19	-0.750			
0.3305	21152.75	3.6990	3.6994	-0.9573	26.01	0.19	-0.750			
0.3334	21335.06	3.6960	3.6960	-0.9768	26.01	0.19	-0.750			
0.3363	21525.43	3.6930	3.6928	-0.9979	26.00	0.18	-0.750			
0.3393	21717.12	3.6900	3.6898	-1.0010	26.00	0.18	-0.750			
0.3424	21913.56	3.6870	3.6872	-1.0284	25.99	0.17	-0.750			
0.3455	22112.61	3.6840	3.6840	-1.0561	25.99	0.17	-0.750			
0.3487	22316.57	3.6810	3.6808	-1.0680	25.98	0.16	-0.750			
0.3519	22523.12	3.6780	3.6779	-1.0831	25.98	0.16	-0.750			
0.3551	22728.14	3.6750	3.6750	-1.1034	25.97	0.15	-0.750			
0.3585	22947.00	3.6720	3.6719	-1.1263	25.96	0.14	-0.750			
0.3620	23165.53	3.6690	3.6690	-1.1490	25.96	0.14	-0.750			
0.3653	23381.99	3.6660	3.6660	-1.1698	25.95	0.13	-0.750			
0.3689	23610.39	3.6630	3.6629	-1.1987	25.95	0.13	-0.750			
0.3726	23844.95	3.6600	3.6600	-1.2256	25.94	0.12	-0.750			
0.3763	24082.98	3.6570	3.6570	-1.2500	25.94	0.12	-0.750			
0.3801	24326.14	3.6540	3.6541	-1.2700	25.93	0.11	-0.750			
0.3840	24576.18	3.6510	3.6509	-1.2959	25.93	0.11	-0.750			
0.3878	24821.55	3.6480	3.6480	-1.3130	25.93	0.11	-0.750			
0.3918	25077.12	3.6450	3.6451	-1.3325	25.93	0.11	-0.750			
0.3959	25338.84	3.6420	3.6418	-1.3501	25.93	0.11	-0.750			
0.3999	25595.10	3.6390	3.6390	-1.3929	25.92	0.10	-0.750			
0.4041	25865.32	3.6360	3.6361	-1.4267	25.91	0.09	-0.750			
0.4085	26143.84	3.6330	3.6327	-1.4609	25.91	0.09	-0.750			
0.4130	26431.65	3.6300	3.6303	-1.4919	25.90	0.08	-0.750			
0.4175	26721.09	3.6270	3.6272	-1.5233	25.89	0.07	-0.750			
0.4222	27019.16	3.6240	3.6240	-1.5517	25.88	0.06	-0.750			
0.4269	27319.67	3.6210	3.6209	-1.5733	25.88	0.06	-0.750			
0.4316	27620.16	3.6180	3.6181	-1.6041	25.87	0.05	-0.750			
0.4364	27931.18	3.6150	3.6149	-1.6426	25.87	0.05	-0.750	0.407	0.544	
0.4414	28247.17	3.6120	3.6122	-1.6645	25.86	0.04	-0.750			
0.4464	28572.65	3.6090	3.6088	-1.6998	25.86	0.04	-0.750			
0.4516	28902.00	3.6060	3.6059	-1.7333	25.85	0.03	-0.750			
0.4568	29236.63	3.6030	3.6030	-1.7638	25.85	0.03	-0.750			
0.4622	29579.47	3.6000	3.6002	-1.7809	25.83	0.01	-0.750			
0.4676	29924.36	3.5970	3.5969	-1.8040	25.82	0.00	-0.750			
0.4730	30273.03	3.5940	3.5939	-1.8419	25.82	0.00	-0.750			
0.4786	30632.51	3.5910	3.5909	-1.8890	25.82	0.00	-0.750			
0.4843	30993.06	3.5880	3.5878	-1.9347	25.82	-0.00	-0.750			
0.4902	31371.51	3.5850	3.5852	-1.9816	25.81	-0.01	-0.750			
0.4963	31760.08	3.5820	3.5818	-2.0225	25.81	-0.01	-0.750			
0.5025	32158.66	3.5790	3.5789	-2.0795	25.80	-0.02	-0.750			
0.5087	32555.82	3.5760	3.5758	-2.0819	25.80	-0.02	-0.750			
0.5150	32958.71	3.5730	3.5731	-2.1026	25.79	-0.03	-0.750			
0.5214	33366.51	3.5700	3.5702	-2.1259	25.79	-0.03	-0.750			
0.5278	33777.59	3.5670	3.5669	-2.1587	25.78	-0.04	-0.750			
0.5342	34189.82	3.5640	3.5640	-2.1613	25.78	-0.04	-0.750			
0.5408	34610.78	3.5610	3.5611	-2.1813	25.78	-0.04	-0.750			
0.5474	35033.79	3.5580	3.5581	-2.1994	25.78	-0.04	-0.750			
0.5541	35461.53	3.5550	3.5549	-2.1822	25.77	-0.05	-0.750			
0.5606	35879.69	3.5520	3.5520	-2.1719	25.77	-0.05	-0.750			
0.5671	36295.63	3.5490	3.5491	-2.1647	25.77	-0.05	-0.750			
0.5737	36713.73	3.5460	3.5462	-2.1570	25.77	-0.05	-0.750			
0.5800	37117.12	3.5430	3.5432	-2.1322	25.78	-0.04	-0.750			
0.5864	37528.68	3.5400	3.5401	-2.1241	25.78	-0.04	-0.750			
0.5927	37930.97	3.5370	3.5371	-2.1267	25.78	-0.04	-0.750			
0.5993	38352.24	3.5340	3.5339	-2.0992	25.79	-0.03	-0.750			
0.6054	38744.91	3.5310	3.5311	-2.0673	25.79	-0.03	-0.750			
0.6116	39145.11	3.5280	3.5281	-2.0198	25.80	-0.02	-0.750			
0.6177	39529.99	3.5250	3.5248	-1.9722	25.80	-0.02	-0.750			
0.6234	39898.46	3.5220	3.5220	-1.9226	25.80	-0.02	-0.750			
0.6291	40262.74	3.5190	3.5188	-1.8873	25.81	-0.01	-0.750			
0.6347	40619.62	3.5160	3.5160	-1.8462	25.82	0.00	-0.750			
0.6402	40971.54	3.5130	3.5129	-1.8057	25.83	0.01	-0.750			
0.6455	41313.42	3.5100	3.5097	-1.7569	25.85	0.03	-0.750			
0.6509	41657.22	3.5070	3.5068	-1.7270	25.86	0.04	-0.750			
0.6559	41977.43	3.5040	3.5040	-1.6552	25.87	0.05	-0.750			
0.6608	42290.94	3.5010	3.5008	-1.5932	25.88	0.06	-0.750			
0.6655	42590.46	3.4980	3.4980	-1.5434	25.89	0.07	-0.750			
0.6700	42882.34	3.4950	3.4948	-1.4914	25.91	0.09	-0.750			
0.6744	43161.29	3.4920	3.4920	-1.4516	25.92	0.10	-0.750			
0.6787	43433.90	3.4890	3.4890	-1.4181	25.93	0.11	-0.750			
0.6829	43706.42	3.4860	3.4859	-1.3853	25.94	0.12	-0.750			
0.6871	43974.73	3.4830	3.4827	-1.3528	25.95	0.13	-0.750			
0.6911	44229.55	3.4800	3.4802	-1.3169	25.96	0.14	-0.750			
0.6949	44476.41	3.4770	3.4771	-1.2665	25.98	0.16	-0.750			
0.6988	44722.40	3.4740	3.4738	-1.2321	26.00	0.18	-0.750			
0.7024	44951.51	3.4710	3.4709	-1.1838	26.02	0.20	-0.750			
0.7057	45167.97	3.4680	3.4683	-1.1375	26.03	0.21	-0.750			
0.7092	45387.72	3.4650	3.4650	-1.1029	26.05	0.23	-0.750			
0.7125	45597.03	3.4620	3.4620	-1.0605	26.06	0.24	-0.750			
0.7156	45795.48	3.4590	3.4589	-1.0135	26.07	0.25	-0.750			
0.7185	45985.87	3.4560	3.4562	-0.9792	26.08	0.26	-0.750			
0.7214	46166.66	3.4530	3.4530	-0.9525	26.09	0.27	-0.750			
0.7241	46343.44	3.4500	3.4499	-0.9230	26.11	0.29	-0.750			
0.7269	46518.74	3.4470	3.4469	-0.9040	26.12	0.30	-0.750			
0.7296	46691.22	3.4440	3.4441	-0.8867	26.13	0.31	-0.750			
0.7322	46858.67	3.4410	3.4410	-0.8773	26.14	0.32	-0.750			
0.7348	47024.86	3.4380	3.4380	-0.8695	26.14	0.32	-0.750			
0.7373	47188.83	3.4350	3.4349	-0.8646	26.15	0.33	-0.750			
0.7399	47350.41	3.4320	3.4320	-0.8625	26.16	0.34	-0.750			
0.7425	47517.60	3.4290	3.4291	-0.8750	26.17	0.35	-0.750			
0.7451	47686.34	3.4260	3.4260	-0.8884	26.18	0.36	-0.750			
0.7478	47860.26	3.4230	3.4229	-0.8960	26.19	0.37	-0.750			
0.7505	48031.88	3.4200	3.4200	-0.9007	26.19	0.37	-0.750			
0.7532	48205.57	3.4170	3.4171	-0.9077	26.20	0.38	-0.750			
0.7560	48381.15	3.4140	3.4140	-0.9153	26.21	0.39	-0.750			
0.7587	48558.42	3.4110	3.4109	-0.9205	26.22	0.40	-0.750			
0.7615	48735.63	3.4080	3.4080	-0.9197	26.23	0.41	-0.750			
0.7643	48914.24	3.4050	3.4050	-0.9118	26.24	0.42	-0.750			
0.7671	49093.21	3.4020	3.4021	-0.9052	26.25	0.43	-0.750			
0.7698	49265.22	3.3990	3.3989	-0.8851	26.25	0.43	-0.750			
0.7724	49433.78	3.3960	3.3959	-0.8655	26.26	0.44	-0.750			
0.7750	49597.96	3.3930	3.3930	-0.8402	26.26	0.44	-0.750			
0.7774	49756.21	3.3900	3.3900	-0.8147	26.27	0.45	-0.750			
0.7799	49912.14	3.3870	3.3870	-0.7913	26.27	0.45	-0.750			
0.7822	50061.96	3.3840	3.3839	-0.7656	26.28	0.46	-0.750			
0.7845	50205.79	3.3810	3.3810	-0.7393	26.28	0.46	-0.750			
0.7866	50344.09	3.3780	3.3780	-0.7165	26.29	0.47	-0.750			
0.7887	50479.88	3.3750	3.3750	-0.6887	26.30	0.48	-0.750			
0.7908	50611.03	3.3720	3.3719	-0.6674	26.30	0.48	-0.750			
0.7928	50736.40	3.3690	3.3693	-0.6415	26.31	0.49	-0.750			
0.7947	50857.63	3.3660	3.3659	-0.6165	26.32	0.50	-0.750			
0.7964	50972.69	3.3630	3.3630	-0.5914	26.33	0.51	-0.750			
0.7982	51082.05	3.3600	3.3601	-0.5687	26.34	0.52	-0.750			
0.7998	51189.70	3.3570	3.3570	-0.5537	26.34	0.52	-0.750			
0.8015	51294.79	3.3540	3.3539	-0.5331	26.35	0.53	-0.750			
0.8030	51393.95	3.3510	3.3510	-0.5131	26.36	0.54	-0.750			
0.8045	51491.18	3.3480	3.3480	-0.4979	26.37	0.55	-0.750			
0.8060	51585.65	3.3450	3.3450	-0.4813	26.37	0.55	-0.750			
0.8074	51675.35	3.3420	3.3419	-0.4646	26.38	0.56	-0.750			
0.8088	51762.82	3.3390	3.3391	-0.4496	26.38	0.56	-0.750			
0.8101	51847.03	3.3360	3.3360	-0.4363	26.39	0.57	-0.750			
0.8114	51930.07	3.3330	3.3329	-0.4249	26.39	0.57	-0.750			
0.8127	52009.63	3.3300	3.3300	-0.4115	26.40	0.58	-0.750			
0.8139	52087.43	3.3270	3.3270	-0.4016	26.40	0.58	-0.750			
0.8151	52164.37	3.3240	3.3240	-0.3905	26.41	0.59	-0.750			
0.8162	52238.20	3.3210	3.3210	-0.3779	26.41	0.59	-0.750			
0.8173	52309.73	3.3180	3.3180	-0.3657	26.42	0.60	-0.750			
0.8184	52378.38	3.3150	3.3150	-0.3539	26.42	0.60	-0.750			
0.8195	52444.94	3.3120	3.3120	-0.3438	26.43	0.61	-0.750			
0.8205	52509.66	3.3090	3.3090	-0.3338	26.43	0.61	-0.750			
0.8214	52572.23	3.3060	3.3059	-0.3246	26.44	0.62	-0.750			
0.8224	52634.05	3.3030	3.3030	-0.3174	26.44	0.62	-0.750			
0.8233	52694.00	3.3000	3.3000	-0.3105	26.45	0.63	-0.750			
0.8243	52753.02	3.2970	3.2970	-0.3030	26.45	0.63	-0.750			
0.8252	52810.40	3.2940	3.2940	-0.2960	26.46	0.64	-0.750			
0.8260	52866.67	3.2910	3.2910	-0.2893	26.46	0.64	-0.750			
0.8269	52921.16	3.2880	3.2880	-0.2852	26.46	0.64	-0.750			
0.8277	52975.65	3.2850	3.2851	-0.2792	26.47	0.65	-0.750			
0.8286	53028.96	3.2820	3.2818	-0.2730	26.47	0.65	-0.750			
0.8294	53080.61	3.2790	3.2790	-0.2673	26.48	0.66	-0.750			
0.8302	53131.60	3.2760	3.2761	-0.2630	26.48	0.66	-0.750			
0.8310	53181.37	3.2730	3.2729	-0.2567	26.49	0.67	-0.750			
0.8317	53229.95	3.2700	3.2699	-0.2510	26.49	0.67	-0.750			
0.8324	53276.79	3.2670	3.2671	-0.2459	26.50	0.68	-0.750			
0.8332	53323.59	3.2640	3.2640	-0.2425	26.50	0.68	-0.750			
0.8339	53370.39	3.2610	3.2610	-0.2400	26.51	0.69	-0.750			
0.8346	53416.20	3.2580	3.2579	-0.2352	26.52	0.70	-0.750			
0.8353	53460.88	3.2550	3.2550	-0.2302	26.52	0.70	-0.750			
0.8360	53504.93	3.2520	3.2520	-0.2259	26.53	0.71	-0.750			
0.8367	53547.81	3.2490	3.2491	-0.2208	26.54	0.72	-0.750			
0.8373	53589.65	3.2460	3.2460	-0.2177	26.54	0.72	-0.750			
0.8380	53630.19	3.2430	3.2430	-0.2142	26.55	0.73	-0.750			
0.8386	53670.63	3.2400	3.2400	-0.2114	26.55	0.73	-0.750			
0.8392	53711.13	3.2370	3.2369	-0.2105	26.56	0.74	-0.750			
0.8399	53751.52	3.2340	3.2340	-0.2085	26.56	0.74	-0.750			
0.8405	53791.79	3.2310	3.2310	-0.2061	26.57	0.75	-0.750			
0.8411	53831.37	3.2280	3.2280	-0.2045	26.57	0.75	-0.750			
0.8417	53870.31	3.2250	3.2251	-0.2013	26.58	0.76	-0.750			
0.8423	53908.72	3.2220	3.2219	-0.1974	26.58	0.76	-0.750			
0.8429	53946.28	3.2190	3.2189	-0.1938	26.58	0.76	-0.750			
0.8435	53982.90	3.2160	3.2161	-0.1914	26.59	0.77	-0.750			
0.8441	54019.63	3.2130	3.2130	-0.1887	26.59	0.77	-0.750			
0.8446	54055.10	3.2100	3.2099	-0.1870	26.60	0.78	-0.750			
0.8452	54090.56	3.2070	3.2070	-0.1848	26.60	0.78	-0.750			
0.8457	54125.61	3.2040	3.2041	-0.1820	26.61	0.79	-0.750			
0.8463	54160.52	3.2010	3.2009	-0.1807	26.61	0.79	-0.750			
0.8468	54195.31	3.1980	3.1980	-0.1796	26.62	0.80	-0.750			
0.8473	54229.59	3.1950	3.1951	-0.1775	26.62	0.80	-0.750			
0.8479	54263.26	3.1920	3.1920	-0.1753	26.63	0.81	-0.750			
0.8484	54297.04	3.1890	3.1890	-0.1738	26.63	0.81	-0.750			
0.8489	54329.72	3.1860	3.1860	-0.1708	26.64	0.82	-0.750			
0.8494	54362.49	3.1830	3.1831	-0.1688	26.64	0.82	-0.750			
0.8499	54394.99	3.1800	3.1800	-0.1677	26.65	0.83	-0.750			
0.8504	54426.81	3.1770	3.1771	-0.1653	26.65	0.83	-0.750			
0.8509	54458.38	3.1740	3.1739	-0.1635	26.66	0.84	-0.750			
0.8514	54489.51	3.1710	3.1710	-0.1622	26.66	0.84	-0.750			
0.8519	54520.51	3.1680	3.1680	-0.1604	26.67	0.85	-0.750			
0.8524	54551.07	3.1650	3.1650	-0.1593	26.67	0.85	-0.750			
0.8528	54581.55	3.1620	3.1620	-0.1582	26.68	0.86	-0.750			
0.8533	54611.92	3.1590	3.1590	-0.1564	26.68	0.86	-0.750			
0.8538	54641.83	3.1560	3.1559	-0.1543	26.69	0.87	-0.750			
0.8542	54671.50	3.1530	3.1530	-0.1527	26.69	0.87	-0.750			
0.8547	54700.40	3.1500	3.1500	-0.1512	26.69	0.87	-0.750			
0.8551	54729.08	3.1470	3.1470	-0.1506	26.70	0.88	-0.750			
0.8556	54757.82	3.1440	3.1439	-0.1497	26.70	0.88	-0.750			
0.8560	54786.13	3.1410	3.1410	-0.1486	26.71	0.89	-0.750			
0.8565	54814.77	3.1380	3.1381	-0.1480	26.72	0.90	-0.750			
0.8569	54843.48	3.1350	3.1351	-0.1472	26.72	0.90	-0.750			
0.8574	54871.90	3.1320	3.1321	-0.1465	26.73	0.91	-0.750			
0.8578	54899.87	3.1290	3.1289	-0.1449	26.74	0.92	-0.750			
0.8582	54927.58	3.1260	3.1260	-0.1428	26.74	0.92	-0.750			
0.8587	54954.69	3.1230	3.1230	-0.1410	26.75	0.93	-0.750			
0.8591	54981.60	3.1200	3.1201	-0.1396	26.75	0.93	-0.750			
0.8595	55008.26	3.1170	3.1170	-0.1380	26.76	0.94	-0.750			
0.8599	55034.49	3.1140	3.1140	-0.1368	26.77	0.95	-0.750			
0.8603	55060.45	3.1110	3.1110	-0.1360	26.77	0.95	-0.750			
0.8607	55086.31	3.1080	3.1080	-0.1352	26.78	0.96	-0.750			
0.8611	55112.27	3.1050	3.1050	-0.1350	26.78	0.96	-0.750			
0.8615	55138.41	3.1020	3.1020	-0.1339	26.79	0.97	-0.750			
0.8619	55164.18	3.0990	3.0990	-0.1326	26.80	0.98	-0.750			
0.8623	55189.72	3.0960	3.0961	-0.1314	26.80	0.98	-0.750			
0.8627	55214.64	3.0930	3.0931	-0.1304	26.81	0.99	-0.750			
0.8631	55239.48	3.0900	3.0900	-0.1295	26.81	0.99	-0.750			
0.8635	55263.98	3.0870	3.0869	-0.1282	26.82	1.00	-0.750			
0.8639	55288.59	3.0840	3.0840	-0.1266	26.82	1.00	-0.750			
0.8643	55312.80	3.0810	3.0812	-0.1258	26.83	1.01	-0.750			
0.8646	55337.08	3.0780	3.0781	-0.1251	26.83	1.01	-0.750			
0.8650	55360.70	3.0750	3.0751	-0.1247	26.83	1.01	-0.750			
0.8654	55384.61	3.0720	3.0719	-0.1243	26.84	1.02	-0.750			
0.8658	55408.25	3.0690	3.0689	-0.1230	26.84	1.02	-0.750			
0.8661	55431.79	3.0660	3.0660	-0.1226	26.85	1.03	-0.750			
0.8665	55455.29	3.0630	3.0632	-0.1223	26.85	1.03	-0.750			
0.8669	55479.10	3.0600	3.0600	-0.1219	26.86	1.04	-0.750			
0.8672	55502.42	3.0570	3.0569	-0.1209	26.86	1.04	-0.750			
0.8676	55525.59	3.0540	3.0540	-0.1199	26.87	1.05	-0.750			
0.8679	55548.51	3.0510	3.0511	-0.1188	26.87	1.05	-0.750			
0.8683	55571.10	3.0480	3.0479	-0.1176	26.88	1.06	-0.750			
0.8687	55593.81	3.0450	3.0450	-0.1170	26.88	1.06	-0.750			
0.8690	55615.86	3.0420	3.0419	-0.1162	26.89	1.07	-0.750			
0.8693	55637.84	3.0390	3.0390	-0.1150	26.90	1.08	-0.750			
0.8697	55659.87	3.0360	3.0360	-0.1146	26.90	1.08	-0.750			
0.8700	55681.72	3.0330	3.0330	-0.1141	26.91	1.09	-0.750			
0.8704	55703.62	3.0300	3.0299	-0.1140	26.92	1.10	-0.750			
0.8707	55725.69	3.0270	3.0270	-0.1130	26.92	1.10	-0.750			
0.8711	55747.31	3.0240	3.0241	-0.1122	26.93	1.11	-0.750			
0.8714	55769.14	3.0210	3.0210	-0.1110	26.93	1.11	-0.750			
0.8717	55790.29	3.0180	3.0180	-0.1093	26.94	1.12	-0.750			
0.8720	55810.95	3.0150	3.0150	-0.1083	26.94	1.12	-0.750			
0.8724	55831.63	3.0120	3.0120	-0.1071	26.95	1.13	-0.750			
0.8727	55851.79	3.0090	3.0090	-0.1062	26.96	1.14	-0.750			
0.8730	55872.14	3.0060	3.0059	-0.1058	26.96	1.14	-0.751			
0.8733	55892.43	3.0030	3.0030	-0.1074	26.97	1.15	-0.751			
