Ah_balance (normalized)	Ah_balance (mAh)	Voltage - fit (V)	Voltage -  interpolate (V)	dQ/dV (1/V)	Temperature (°C)	Temperature - diff (°C)	Current (C)	R_DC 0ms (mOhm)	R_DC 50ms (mOhm)	R_DC 50 ms PEC (mOhm)
0.0004	22.53	4.1540	4.1548	-0.1687	25.01	0.00	-0.750			
0.0009	56.35	4.1510	4.1511	-0.1886	25.01	0.00	-0.750			
0.0015	94.07	4.1480	4.1480	-0.2135	25.01	0.00	-0.750			
0.0022	137.60	4.1450	4.1451	-0.2411	25.01	-0.00	-0.750			
0.0029	186.18	4.1420	4.1419	-0.2701	25.01	-0.00	-0.750			
0.0038	240.03	4.1390	4.1390	-0.2988	25.01	-0.00	-0.750			
0.0047	300.50	4.1360	4.1360	-0.3293	25.01	-0.00	-0.750			
0.0057	366.88	4.1330	4.1329	-0.3582	25.00	-0.01	-0.750			
0.0069	438.76	4.1300	4.1300	-0.3875	25.00	-0.01	-0.750			
0.0081	516.61	4.1270	4.1270	-0.4130	25.00	-0.01	-0.750			
0.0094	599.16	4.1240	4.1240	-0.4373	25.00	-0.01	-0.750			
0.0107	685.86	4.1210	4.1210	-0.4590	25.00	-0.01	-0.750			
0.0121	776.67	4.1180	4.1180	-0.4772	24.99	-0.02	-0.750			
0.0136	870.63	4.1150	4.1150	-0.4944	24.99	-0.02	-0.750			
0.0151	966.19	4.1120	4.1120	-0.5145	24.99	-0.02	-0.750			
0.0167	1066.21	4.1090	4.1090	-0.5308	24.99	-0.02	-0.750			
0.0183	1170.21	4.1060	4.1059	-0.5499	24.99	-0.02	-0.750			
0.0200	1278.33	4.1030	4.1030	-0.5650	24.99	-0.02	-0.750			
0.0217	1389.36	4.1000	4.1001	-0.5788	24.98	-0.03	-0.750			
0.0235	1502.67	4.0970	4.0970	-0.5892	24.98	-0.03	-0.750			
0.0253	1617.38	4.0940	4.0940	-0.5971	24.98	-0.03	-0.750			
0.0271	1732.14	4.0910	4.0911	-0.6028	24.98	-0.03	-0.750			
0.0289	1848.64	4.0880	4.0880	-0.6100	24.98	-0.03	-0.750			
0.0307	1966.18	4.0850	4.0849	-0.6135	24.98	-0.03	-0.750			
0.0326	2083.79	4.0820	4.0821	-0.6251	24.98	-0.03	-0.750			
0.0344	2204.46	4.0790	4.0790	-0.6290	24.98	-0.03	-0.750			
0.0364	2326.51	4.0760	4.0760	-0.6368	24.98	-0.03	-0.750			
0.0383	2449.51	4.0730	4.0730	-0.6437	24.98	-0.03	-0.750			
0.0402	2573.72	4.0700	4.0699	-0.6492	24.98	-0.03	-0.750			
0.0422	2699.19	4.0670	4.0671	-0.6554	24.98	-0.03	-0.750			
0.0442	2826.12	4.0640	4.0640	-0.6579	24.98	-0.03	-0.750			
0.0461	2951.22	4.0610	4.0610	-0.6627	24.99	-0.02	-0.750			
0.0481	3081.06	4.0580	4.0580	-0.6689	24.99	-0.02	-0.750			
0.0501	3208.88	4.0550	4.0548	-0.6682	24.99	-0.02	-0.750			
0.0521	3336.91	4.0520	4.0522	-0.6726	24.99	-0.02	-0.750			
0.0542	3466.97	4.0490	4.0490	-0.6756	24.99	-0.02	-0.750			
0.0562	3596.60	4.0460	4.0460	-0.6793	24.99	-0.02	-0.750			
0.0583	3728.04	4.0430	4.0430	-0.6817	24.99	-0.02	-0.750			
0.0603	3858.74	4.0400	4.0400	-0.6813	25.00	-0.01	-0.750			
0.0623	3990.04	4.0370	4.0370	-0.6847	25.00	-0.01	-0.750			
0.0644	4121.17	4.0340	4.0340	-0.6861	25.00	-0.01	-0.750			
0.0664	4252.41	4.0310	4.0309	-0.6852	25.00	-0.01	-0.750			
0.0685	4384.79	4.0280	4.0280	-0.6883	25.01	-0.00	-0.750			
0.0706	4517.34	4.0250	4.0250	-0.6898	25.01	0.00	-0.750			
0.0727	4650.30	4.0220	4.0220	-0.6902	25.02	0.01	-0.750			
0.0748	4784.17	4.0190	4.0190	-0.6933	25.02	0.01	-0.750			
0.0768	4916.38	4.0160	4.0160	-0.6935	25.03	0.02	-0.750			
0.0789	5048.92	4.0130	4.0130	-0.6977	25.03	0.02	-0.750			
0.0810	5183.52	4.0100	4.0098	-0.7007	25.04	0.03	-0.750			
0.0831	5318.29	4.0070	4.0070	-0.7004	25.04	0.03	-0.750			
0.0852	5455.32	4.0040	4.0040	-0.7028	25.04	0.03	-0.750			
0.0873	5587.41	4.0010	4.0011	-0.7065	25.05	0.04	-0.750			
0.0894	5724.27	3.9980	3.9979	-0.7118	25.05	0.04	-0.750			
0.0916	5859.24	3.9950	3.9948	-0.7153	25.05	0.04	-0.750			
0.0937	5997.31	3.9920	3.9920	-0.7197	25.06	0.05	-0.750			
0.0959	6136.94	3.9890	3.9891	-0.7288	25.06	0.05	-0.750			
0.0981	6279.33	3.9860	3.9860	-0.7269	25.06	0.05	-0.750			
0.1003	6420.52	3.9830	3.9829	-0.7294	25.07	0.06	-0.750			
0.1025	6558.52	3.9800	3.9802	-0.7290	25.07	0.06	-0.750			
0.1047	6699.41	3.9770	3.9769	-0.7257	25.07	0.06	-0.750			
0.1068	6836.61	3.9740	3.9739	-0.7336	25.08	0.07	-0.750			
0.1090	6978.06	3.9710	3.9711	-0.7324	25.08	0.07	-0.750			
0.1112	7119.87	3.9680	3.9679	-0.7348	25.08	0.07	-0.750			
0.1135	7261.56	3.9650	3.9649	-0.7358	25.09	0.08	-0.750			
0.1157	7401.67	3.9620	3.9619	-0.7350	25.09	0.08	-0.750			
0.1179	7542.63	3.9590	3.9590	-0.7375	25.10	0.09	-0.750			
0.1201	7684.81	3.9560	3.9560	-0.7440	25.10	0.09	-0.750			
0.1223	7825.56	3.9530	3.9530	-0.7431	25.10	0.09	-0.750			
0.1246	7972.04	3.9500	3.9499	-0.7485	25.11	0.10	-0.750			
0.1268	8115.54	3.9470	3.9471	-0.7514	25.11	0.10	-0.750			
0.1291	8259.31	3.9440	3.9440	-0.7558	25.11	0.10	-0.750			
0.1313	8403.28	3.9410	3.9409	-0.7618	25.12	0.11	-0.750			
0.1336	8551.65	3.9380	3.9380	-0.7631	25.12	0.11	-0.750			
0.1359	8697.67	3.9350	3.9350	-0.7655	25.12	0.11	-0.750			
0.1382	8847.13	3.9320	3.9320	-0.7719	25.13	0.12	-0.750			
0.1406	8996.51	3.9290	3.9291	-0.7702	25.13	0.12	-0.750			
0.1428	9142.02	3.9260	3.9259	-0.7716	25.13	0.12	-0.750			
0.1452	9290.45	3.9230	3.9230	-0.7720	25.13	0.12	-0.750			
0.1475	9439.19	3.9200	3.9200	-0.7688	25.14	0.13	-0.750			
0.1498	9587.69	3.9170	3.9170	-0.7727	25.14	0.13	-0.750			
0.1521	9736.15	3.9140	3.9142	-0.7706	25.14	0.13	-0.750			
0.1544	9883.73	3.9110	3.9110	-0.7704	25.14	0.13	-0.750			
0.1567	10031.50	3.9080	3.9079	-0.7726	25.15	0.14	-0.750			
0.1590	10178.78	3.9050	3.9050	-0.7708	25.15	0.14	-0.750			
0.1614	10328.03	3.9020	3.9020	-0.7752	25.15	0.14	-0.750			
0.1637	10477.03	3.8990	3.8990	-0.7768	25.16	0.15	-0.750			
0.1660	10625.74	3.8960	3.8960	-0.7763	25.16	0.15	-0.750			
0.1684	10775.34	3.8930	3.8930	-0.7795	25.17	0.16	-0.750			
0.1707	10924.58	3.8900	3.8900	-0.7785	25.17	0.16	-0.750			
0.1730	11074.12	3.8870	3.8870	-0.7798	25.17	0.16	-0.750			
0.1754	11225.55	3.8840	3.8839	-0.7812	25.18	0.17	-0.750			
0.1777	11375.01	3.8810	3.8811	-0.7815	25.18	0.17	-0.750			
0.1801	11524.65	3.8780	3.8781	-0.7840	25.18	0.17	-0.750			
0.1824	11675.33	3.8750	3.8750	-0.7869	25.19	0.18	-0.750			
0.1848	11827.54	3.8720	3.8719	-0.7846	25.19	0.18	-0.750			
0.1872	11979.07	3.8690	3.8690	-0.7830	25.20	0.19	-0.750			
0.1895	12129.10	3.8660	3.8661	-0.7820	25.20	0.19	-0.750			
0.1919	12278.65	3.8630	3.8629	-0.7800	25.20	0.19	-0.750			
0.1942	12427.59	3.8600	3.8600	-0.7828	25.21	0.20	-0.750			
0.1965	12575.54	3.8570	3.8570	-0.7824	25.21	0.20	-0.750			
0.1989	12727.89	3.8540	3.8539	-0.7858	25.21	0.20	-0.750			
0.2012	12879.66	3.8510	3.8510	-0.7869	25.22	0.21	-0.750			
0.2036	13031.97	3.8480	3.8479	-0.7857	25.22	0.21	-0.750			
0.2060	13181.63	3.8450	3.8450	-0.7834	25.23	0.22	-0.750			
0.2083	13331.08	3.8420	3.8420	-0.7790	25.23	0.22	-0.750			
0.2106	13479.93	3.8390	3.8391	-0.7752	25.23	0.22	-0.750			
0.2130	13629.49	3.8360	3.8359	-0.7742	25.24	0.23	-0.750			
0.2153	13778.29	3.8330	3.8331	-0.7732	25.24	0.23	-0.750			
0.2176	13925.27	3.8300	3.8301	-0.7708	25.24	0.23	-0.750			
0.2199	14073.81	3.8270	3.8270	-0.7680	25.24	0.23	-0.750			
0.2222	14220.66	3.8240	3.8240	-0.7643	25.25	0.24	-0.750			
0.2245	14368.25	3.8210	3.8210	-0.7635	25.25	0.24	-0.750			
0.2268	14514.97	3.8180	3.8180	-0.7609	25.25	0.24	-0.750			
0.2291	14660.41	3.8150	3.8149	-0.7575	25.25	0.24	-0.750			
0.2313	14805.35	3.8120	3.8120	-0.7530	25.25	0.24	-0.750			
0.2336	14949.59	3.8090	3.8090	-0.7514	25.26	0.25	-0.750			
0.2358	15093.04	3.8060	3.8060	-0.7477	25.26	0.25	-0.750			
0.2381	15237.20	3.8030	3.8030	-0.7456	25.26	0.25	-0.750			
0.2403	15379.98	3.8000	3.8000	-0.7422	25.26	0.25	-0.750			
0.2425	15521.70	3.7970	3.7970	-0.7424	25.27	0.26	-0.750			
0.2448	15664.57	3.7940	3.7940	-0.7382	25.28	0.27	-0.750			
0.2470	15806.44	3.7910	3.7909	-0.7332	25.28	0.27	-0.750			
0.2492	15946.95	3.7880	3.7881	-0.7315	25.29	0.28	-0.750			
0.2514	16087.15	3.7850	3.7850	-0.7296	25.30	0.29	-0.750			
0.2536	16227.26	3.7820	3.7819	-0.7239	25.30	0.29	-0.750			
0.2557	16365.36	3.7790	3.7790	-0.7213	25.30	0.29	-0.750			
0.2578	16501.54	3.7760	3.7761	-0.7244	25.30	0.29	-0.750			
0.2600	16642.15	3.7730	3.7730	-0.7233	25.30	0.29	-0.750			
0.2622	16782.74	3.7700	3.7699	-0.7232	25.30	0.29	-0.750			
0.2644	16920.83	3.7670	3.7673	-0.7186	25.30	0.29	-0.750			
0.2665	17058.14	3.7640	3.7639	-0.7193	25.30	0.29	-0.750			
0.2687	17195.15	3.7610	3.7611	-0.7246	25.31	0.30	-0.750			
0.2708	17333.59	3.7580	3.7579	-0.7241	25.31	0.30	-0.750			
0.2730	17473.13	3.7550	3.7550	-0.7288	25.31	0.30	-0.750			
0.2752	17613.89	3.7520	3.7520	-0.7329	25.32	0.31	-0.750			
0.2774	17754.16	3.7490	3.7491	-0.7412	25.32	0.31	-0.750			
0.2796	17897.07	3.7460	3.7459	-0.7441	25.32	0.31	-0.750			
0.2819	18038.40	3.7430	3.7429	-0.7479	25.32	0.31	-0.750			
0.2841	18182.83	3.7400	3.7400	-0.7569	25.32	0.31	-0.750			
0.2864	18329.78	3.7370	3.7371	-0.7716	25.32	0.31	-0.750			
0.2887	18478.06	3.7340	3.7340	-0.7820	25.32	0.31	-0.750			
0.2911	18628.89	3.7310	3.7309	-0.7906	25.32	0.31	-0.750			
0.2934	18780.50	3.7280	3.7280	-0.8059	25.33	0.32	-0.750			
0.2959	18937.39	3.7250	3.7251	-0.8197	25.33	0.32	-0.750			
0.2984	19096.88	3.7220	3.7220	-0.8249	25.33	0.32	-0.750			
0.3009	19256.69	3.7190	3.7190	-0.8398	25.34	0.33	-0.750			
0.3034	19418.26	3.7160	3.7160	-0.8502	25.34	0.33	-0.750			
0.3060	19580.96	3.7130	3.7130	-0.8666	25.33	0.32	-0.750			
0.3086	19749.51	3.7100	3.7099	-0.8829	25.33	0.32	-0.750			
0.3112	19919.53	3.7070	3.7070	-0.8921	25.33	0.32	-0.750			
0.3140	20093.62	3.7040	3.7040	-0.9124	25.32	0.31	-0.750			
0.3167	20270.82	3.7010	3.7010	-0.9358	25.32	0.31	-0.750			
0.3196	20451.63	3.6980	3.6978	-0.9447	25.32	0.31	-0.750			
0.3224	20633.84	3.6950	3.6950	-0.9601	25.32	0.31	-0.750			
0.3253	20819.22	3.6920	3.6919	-0.9774	25.32	0.31	-0.750			
0.3283	21009.80	3.6890	3.6891	-1.0014	25.32	0.31	-0.750			
0.3313	21204.65	3.6860	3.6859	-1.0163	25.32	0.31	-0.750			
0.3344	21399.89	3.6830	3.6830	-1.0278	25.31	0.30	-0.750			
0.3375	21597.89	3.6800	3.6800	-1.0397	25.31	0.30	-0.750			
0.3406	21799.92	3.6770	3.6771	-1.0714	25.31	0.30	-0.750			
0.3439	22007.31	3.6740	3.6740	-1.0840	25.31	0.30	-0.750			
0.3472	22218.23	3.6710	3.6709	-1.0950	25.30	0.29	-0.750			
0.3505	22430.04	3.6680	3.6680	-1.1111	25.30	0.29	-0.750			
0.3538	22646.00	3.6650	3.6650	-1.1372	25.30	0.29	-0.750			
0.3573	22864.64	3.6620	3.6619	-1.1578	25.29	0.28	-0.750			
0.3608	23088.89	3.6590	3.6589	-1.1753	25.29	0.28	-0.750			
0.3643	23314.70	3.6560	3.6562	-1.1948	25.28	0.27	-0.750			
0.3680	23552.60	3.6530	3.6529	-1.2125	25.27	0.26	-0.750			
0.3717	23790.73	3.6500	3.6500	-1.2233	25.27	0.26	-0.750			
0.3753	24021.91	3.6470	3.6470	-1.2321	25.26	0.25	-0.750			
0.3790	24256.86	3.6440	3.6441	-1.2506	25.26	0.25	-0.750			
0.3827	24495.79	3.6410	3.6408	-1.2704	25.25	0.24	-0.750			
0.3866	24740.56	3.6380	3.6379	-1.2956	25.24	0.23	-0.750			
0.3905	24991.77	3.6350	3.6351	-1.3369	25.23	0.22	-0.750			
0.3947	25259.29	3.6320	3.6320	-1.3899	25.23	0.22	-0.750			
0.3989	25527.93	3.6290	3.6288	-1.4179	25.22	0.21	-0.750			
0.4032	25803.52	3.6260	3.6262	-1.4407	25.22	0.21	-0.750			
0.4075	26081.17	3.6230	3.6230	-1.4714	25.21	0.20	-0.750			
0.4120	26367.04	3.6200	3.6199	-1.5030	25.20	0.19	-0.750			
0.4165	26656.46	3.6170	3.6170	-1.5137	25.20	0.19	-0.750			
0.4212	26955.15	3.6140	3.6139	-1.5582	25.19	0.18	-0.750			
0.4259	27258.16	3.6110	3.6109	-1.5836	25.18	0.17	-0.750	0.401	0.569	
0.4307	27563.51	3.6080	3.6079	-1.6108	25.18	0.17	-0.750			
0.4356	27880.46	3.6050	3.6051	-1.6503	25.17	0.16	-0.750			
0.4406	28201.27	3.6020	3.6020	-1.6735	25.17	0.16	-0.750			
0.4457	28521.82	3.5990	3.5991	-1.7173	25.16	0.15	-0.750			
0.4509	28857.73	3.5960	3.5960	-1.7497	25.15	0.14	-0.750			
0.4562	29194.80	3.5930	3.5930	-1.7708	25.15	0.14	-0.750			
0.4616	29539.98	3.5900	3.5899	-1.8023	25.15	0.14	-0.750			
0.4669	29882.92	3.5870	3.5867	-1.8389	25.15	0.14	-0.750			
0.4724	30236.73	3.5840	3.5839	-1.8800	25.14	0.13	-0.750			
0.4782	30604.44	3.5810	3.5809	-1.8956	25.14	0.13	-0.750			
0.4839	30972.42	3.5780	3.5781	-1.9382	25.14	0.13	-0.750			
0.4899	31351.49	3.5750	3.5751	-1.9695	25.14	0.13	-0.750			
0.4958	31734.25	3.5720	3.5717	-2.0029	25.14	0.13	-0.750			
0.5019	32120.76	3.5690	3.5693	-2.0240	25.14	0.13	-0.750			
0.5080	32511.34	3.5660	3.5663	-2.0487	25.14	0.13	-0.750			
0.5142	32908.54	3.5630	3.5630	-2.0751	25.13	0.12	-0.750			
0.5205	33312.58	3.5600	3.5597	-2.0706	25.13	0.12	-0.750			
0.5268	33715.02	3.5570	3.5568	-2.0655	25.13	0.12	-0.750			
0.5331	34115.35	3.5540	3.5539	-2.0807	25.13	0.12	-0.750			
0.5392	34510.86	3.5510	3.5507	-2.0504	25.13	0.12	-0.750			
0.5453	34898.46	3.5480	3.5482	-2.0444	25.13	0.12	-0.750			
0.5515	35294.46	3.5450	3.5451	-2.0440	25.14	0.13	-0.750			
0.5576	35686.91	3.5420	3.5419	-2.0506	25.14	0.13	-0.750			
0.5639	36088.30	3.5390	3.5391	-2.0518	25.14	0.13	-0.750			
0.5701	36484.57	3.5360	3.5363	-2.0647	25.14	0.13	-0.750			
0.5763	36886.11	3.5330	3.5331	-2.0246	25.15	0.14	-0.750			
0.5824	37274.15	3.5300	3.5301	-1.9938	25.15	0.14	-0.750			
0.5882	37647.32	3.5270	3.5271	-1.9655	25.15	0.14	-0.750			
0.5941	38020.75	3.5240	3.5239	-1.9321	25.16	0.15	-0.750			
0.5998	38389.37	3.5210	3.5210	-1.8908	25.17	0.16	-0.750			
0.6055	38749.66	3.5180	3.5179	-1.8537	25.19	0.18	-0.750			
0.6110	39102.12	3.5150	3.5149	-1.8216	25.19	0.18	-0.750			
0.6165	39453.85	3.5120	3.5117	-1.7886	25.20	0.19	-0.750			
0.6218	39792.22	3.5090	3.5091	-1.7705	25.21	0.20	-0.750			
0.6271	40134.98	3.5060	3.5062	-1.7101	25.21	0.20	-0.750			
0.6323	40467.93	3.5030	3.5031	-1.6810	25.22	0.21	-0.750			
0.6372	40783.08	3.5000	3.5000	-1.6121	25.23	0.22	-0.750			
0.6420	41091.14	3.4970	3.4967	-1.5599	25.25	0.24	-0.750			
0.6466	41380.95	3.4940	3.4940	-1.5043	25.26	0.25	-0.750			
0.6509	41660.65	3.4910	3.4909	-1.4547	25.28	0.27	-0.750			
0.6552	41933.09	3.4880	3.4880	-1.4145	25.29	0.28	-0.750			
0.6595	42207.31	3.4850	3.4849	-1.3853	25.30	0.29	-0.750			
0.6635	42462.86	3.4820	3.4820	-1.3405	25.32	0.31	-0.750			
0.6675	42720.79	3.4790	3.4789	-1.3036	25.33	0.32	-0.750			
0.6714	42970.34	3.4760	3.4759	-1.2591	25.34	0.33	-0.750			
0.6751	43204.87	3.4730	3.4730	-1.2103	25.35	0.34	-0.750			
0.6786	43430.50	3.4700	3.4701	-1.1722	25.37	0.36	-0.750			
0.6821	43652.70	3.4670	3.4670	-1.1383	25.38	0.37	-0.750			
0.6854	43867.79	3.4640	3.4637	-1.1056	25.40	0.39	-0.750			
0.6887	44075.32	3.4610	3.4611	-1.0686	25.42	0.41	-0.750			
0.6919	44280.90	3.4580	3.4580	-1.0416	25.43	0.42	-0.750			
0.6950	44480.46	3.4550	3.4550	-1.0140	25.44	0.43	-0.750			
0.6980	44670.74	3.4520	3.4519	-0.9755	25.45	0.44	-0.750			
0.7008	44851.09	3.4490	3.4489	-0.9389	25.46	0.45	-0.750			
0.7036	45028.01	3.4460	3.4458	-0.9130	25.47	0.46	-0.750			
0.7062	45199.32	3.4430	3.4430	-0.8989	25.48	0.47	-0.750			
0.7089	45369.09	3.4400	3.4400	-0.8838	25.49	0.48	-0.750			
0.7115	45535.67	3.4370	3.4369	-0.8662	25.50	0.49	-0.750			
0.7141	45704.33	3.4340	3.4340	-0.8634	25.51	0.50	-0.750			
0.7167	45867.94	3.4310	3.4310	-0.8571	25.52	0.51	-0.750			
0.7193	46032.17	3.4280	3.4279	-0.8548	25.53	0.52	-0.750			
0.7218	46194.49	3.4250	3.4249	-0.8478	25.54	0.53	-0.750			
0.7243	46356.30	3.4220	3.4221	-0.8444	25.55	0.54	-0.750			
0.7269	46520.20	3.4190	3.4192	-0.8467	25.56	0.55	-0.750			
0.7294	46683.23	3.4160	3.4159	-0.8434	25.57	0.56	-0.750			
0.7319	46843.68	3.4130	3.4130	-0.8468	25.58	0.57	-0.750			
0.7345	47005.86	3.4100	3.4100	-0.8470	25.58	0.57	-0.750			
0.7370	47170.66	3.4070	3.4069	-0.8497	25.59	0.58	-0.750			
0.7396	47334.21	3.4040	3.4043	-0.8404	25.60	0.59	-0.750			
0.7421	47495.48	3.4010	3.4010	-0.8358	25.61	0.60	-0.750			
0.7446	47654.92	3.3980	3.3981	-0.8324	25.62	0.61	-0.750			
0.7471	47816.29	3.3950	3.3948	-0.8198	25.62	0.61	-0.750			
0.7496	47973.33	3.3920	3.3919	-0.8055	25.63	0.62	-0.750			
0.7520	48126.98	3.3890	3.3894	-0.7863	25.64	0.63	-0.750			
0.7543	48277.73	3.3860	3.3860	-0.7695	25.65	0.64	-0.750			
0.7566	48422.65	3.3830	3.3829	-0.7465	25.65	0.64	-0.750			
0.7588	48560.03	3.3800	3.3800	-0.7197	25.66	0.65	-0.750			
0.7609	48697.48	3.3770	3.3771	-0.7041	25.67	0.66	-0.750			
0.7630	48830.95	3.3740	3.3739	-0.6845	25.67	0.66	-0.750			
0.7650	48962.34	3.3710	3.3711	-0.6615	25.68	0.67	-0.750			
0.7670	49086.58	3.3680	3.3680	-0.6404	25.69	0.68	-0.750			
0.7688	49206.32	3.3650	3.3651	-0.6201	25.69	0.68	-0.750			
0.7707	49323.82	3.3620	3.3620	-0.5989	25.70	0.69	-0.750			
0.7724	49435.80	3.3590	3.3589	-0.5819	25.71	0.70	-0.750			
0.7742	49546.12	3.3560	3.3560	-0.5643	25.71	0.70	-0.750			
0.7758	49653.21	3.3530	3.3530	-0.5463	25.72	0.71	-0.750			
0.7775	49756.82	3.3500	3.3501	-0.5282	25.72	0.71	-0.750			
0.7790	49855.49	3.3470	3.3471	-0.5088	25.73	0.72	-0.750			
0.7805	49951.31	3.3440	3.3440	-0.4956	25.73	0.72	-0.750			
0.7819	50044.10	3.3410	3.3410	-0.4812	25.74	0.73	-0.750			
0.7834	50135.54	3.3380	3.3380	-0.4655	25.75	0.74	-0.750			
0.7847	50222.90	3.3350	3.3350	-0.4538	25.75	0.74	-0.750			
0.7861	50309.58	3.3320	3.3321	-0.4414	25.76	0.75	-0.750			
0.7874	50393.00	3.3290	3.3289	-0.4276	25.76	0.75	-0.750			
0.7886	50472.90	3.3260	3.3259	-0.4151	25.77	0.76	-0.750			
0.7899	50551.67	3.3230	3.3232	-0.4026	25.77	0.76	-0.750			
0.7911	50627.86	3.3200	3.3200	-0.3933	25.78	0.77	-0.750			
0.7922	50702.54	3.3170	3.3170	-0.3839	25.78	0.77	-0.750			
0.7933	50774.13	3.3140	3.3141	-0.3718	25.79	0.78	-0.750			
0.7945	50845.03	3.3110	3.3110	-0.3657	25.79	0.78	-0.750			
0.7955	50914.76	3.3080	3.3079	-0.3563	25.79	0.78	-0.750			
0.7966	50982.28	3.3050	3.3050	-0.3464	25.80	0.79	-0.750			
0.7976	51048.28	3.3020	3.3019	-0.3404	25.80	0.79	-0.750			
0.7986	51111.74	3.2990	3.2991	-0.3319	25.81	0.80	-0.750			
0.7996	51174.59	3.2960	3.2959	-0.3246	25.81	0.80	-0.750			
0.8006	51236.30	3.2930	3.2930	-0.3183	25.81	0.80	-0.750			
0.8015	51296.77	3.2900	3.2899	-0.3105	25.82	0.81	-0.750			
0.8024	51356.39	3.2870	3.2871	-0.3048	25.82	0.81	-0.750			
0.8033	51414.13	3.2840	3.2840	-0.2994	25.83	0.82	-0.750			
0.8042	51470.04	3.2810	3.2809	-0.2923	25.84	0.83	-0.750			
0.8051	51525.88	3.2780	3.2780	-0.2883	25.84	0.83	-0.750			
0.8059	51579.98	3.2750	3.2749	-0.2839	25.85	0.84	-0.750			
0.8068	51634.66	3.2720	3.2721	-0.2808	25.85	0.84	-0.750			
0.8076	51688.86	3.2690	3.2690	-0.2764	25.86	0.85	-0.750			
0.8085	51741.72	3.2660	3.2659	-0.2716	25.87	0.86	-0.750			
0.8093	51793.24	3.2630	3.2630	-0.2658	25.87	0.86	-0.750			
0.8101	51843.34	3.2600	3.2600	-0.2601	25.88	0.87	-0.750			
0.8108	51891.99	3.2570	3.2569	-0.2561	25.88	0.87	-0.750			
0.8116	51940.34	3.2540	3.2540	-0.2521	25.89	0.88	-0.750			
0.8123	51989.09	3.2510	3.2509	-0.2485	25.89	0.88	-0.750			
0.8131	52036.61	3.2480	3.2480	-0.2456	25.90	0.89	-0.750			
0.8138	52083.71	3.2450	3.2451	-0.2434	25.90	0.89	-0.750			
0.8145	52129.95	3.2420	3.2422	-0.2409	25.91	0.90	-0.750			
0.8152	52175.91	3.2390	3.2389	-0.2379	25.92	0.91	-0.750			
0.8160	52221.08	3.2360	3.2358	-0.2341	25.92	0.91	-0.750			
0.8166	52265.39	3.2330	3.2330	-0.2301	25.93	0.92	-0.750			
0.8173	52309.48	3.2300	3.2301	-0.2289	25.93	0.92	-0.750			
0.8180	52353.25	3.2270	3.2271	-0.2265	25.93	0.92	-0.750			
0.8187	52397.11	3.2240	3.2240	-0.2237	25.94	0.93	-0.750			
0.8194	52439.41	3.2210	3.2210	-0.2198	25.94	0.93	-0.750			
0.8200	52481.06	3.2180	3.2181	-0.2172	25.95	0.94	-0.750			
0.8207	52522.61	3.2150	3.2151	-0.2147	25.95	0.94	-0.750			
0.8213	52563.62	3.2120	3.2120	-0.2135	25.96	0.95	-0.750			
0.8219	52604.32	3.2090	3.2089	-0.2114	25.96	0.95	-0.750			
0.8226	52644.29	3.2060	3.2060	-0.2086	25.97	0.96	-0.750			
0.8232	52684.53	3.2030	3.2029	-0.2064	25.97	0.96	-0.750			
0.8238	52724.20	3.2000	3.2000	-0.2052	25.98	0.97	-0.750			
0.8244	52763.34	3.1970	3.1971	-0.2025	25.98	0.97	-0.750			
0.8250	52801.77	3.1940	3.1940	-0.2005	25.99	0.98	-0.750			
0.8256	52840.28	3.1910	3.1910	-0.1980	25.99	0.98	-0.750			
0.8262	52877.69	3.1880	3.1879	-0.1951	25.99	0.98	-0.750			
0.8268	52914.98	3.1850	3.1851	-0.1934	26.00	0.99	-0.750			
0.8274	52952.19	3.1820	3.1819	-0.1914	26.00	0.99	-0.750			
0.8279	52988.76	3.1790	3.1789	-0.1897	26.01	1.00	-0.750			
0.8285	53024.64	3.1760	3.1760	-0.1872	26.01	1.00	-0.750			
0.8291	53060.43	3.1730	3.1730	-0.1857	26.02	1.01	-0.750			
0.8296	53095.80	3.1700	3.1700	-0.1843	26.02	1.01	-0.750			
0.8302	53131.55	3.1670	3.1670	-0.1820	26.03	1.02	-0.750			
0.8307	53166.09	3.1640	3.1639	-0.1800	26.04	1.03	-0.750			
0.8313	53200.44	3.1610	3.1611	-0.1778	26.04	1.03	-0.750			
0.8318	53234.47	3.1580	3.1581	-0.1760	26.05	1.04	-0.750			
0.8323	53267.92	3.1550	3.1549	-0.1738	26.05	1.04	-0.750			
0.8328	53301.15	3.1520	3.1521	-0.1715	26.06	1.05	-0.750			
0.8333	53333.89	3.1490	3.1490	-0.1695	26.06	1.05	-0.750			
0.8338	53365.99	3.1460	3.1460	-0.1688	26.07	1.06	-0.750			
0.8343	53398.29	3.1430	3.1430	-0.1688	26.07	1.06	-0.750			
0.8349	53430.73	3.1400	3.1397	-0.1663	26.07	1.06	-0.750			
0.8354	53462.55	3.1370	3.1370	-0.1652	26.08	1.07	-0.750			
0.8358	53494.19	3.1340	3.1341	-0.1647	26.08	1.07	-0.750			
0.8363	53525.98	3.1310	3.1312	-0.1635	26.09	1.08	-0.750			
0.8368	53557.44	3.1280	3.1279	-0.1624	26.09	1.08	-0.750			
0.8373	53588.43	3.1250	3.1250	-0.1601	26.10	1.09	-0.750			
0.8378	53618.70	3.1220	3.1219	-0.1577	26.10	1.09	-0.750			
0.8383	53648.68	3.1190	3.1190	-0.1560	26.11	1.10	-0.750			
0.8387	53678.73	3.1160	3.1159	-0.1557	26.12	1.11	-0.750			
0.8392	53708.24	3.1130	3.1131	-0.1529	26.12	1.11	-0.750			
0.8396	53737.48	3.1100	3.1099	-0.1517	26.13	1.12	-0.750			
0.8401	53766.59	3.1070	3.1069	-0.1502	26.14	1.13	-0.750			
0.8406	53795.24	3.1040	3.1041	-0.1490	26.14	1.13	-0.750			
0.8410	53823.80	3.1010	3.1010	-0.1480	26.15	1.14	-0.750			
0.8414	53852.07	3.0980	3.0980	-0.1465	26.15	1.14	-0.750			
0.8419	53879.73	3.0950	3.0950	-0.1460	26.16	1.15	-0.750			
0.8423	53907.65	3.0920	3.0920	-0.1446	26.16	1.15	-0.750			
0.8427	53935.60	3.0890	3.0889	-0.1445	26.17	1.16	-0.750			
0.8432	53963.27	3.0860	3.0860	-0.1433	26.18	1.17	-0.750			
0.8436	53990.95	3.0830	3.0831	-0.1416	26.18	1.17	-0.750			
0.8440	54017.92	3.0800	3.0800	-0.1403	26.19	1.18	-0.750			
0.8444	54044.77	3.0770	3.0769	-0.1387	26.19	1.18	-0.750			
0.8449	54071.07	3.0740	3.0742	-0.1377	26.20	1.19	-0.750			
0.8453	54097.02	3.0710	3.0709	-0.1363	26.20	1.19	-0.750			
0.8457	54123.13	3.0680	3.0680	-0.1360	26.21	1.20	-0.750			
0.8461	54149.20	3.0650	3.0650	-0.1356	26.21	1.20	-0.750			
0.8465	54175.11	3.0620	3.0621	-0.1351	26.22	1.21	-0.750			
0.8469	54201.43	3.0590	3.0590	-0.1344	26.22	1.21	-0.750			
0.8473	54227.16	3.0560	3.0559	-0.1332	26.23	1.22	-0.750			
0.8477	54252.62	3.0530	3.0531	-0.1318	26.23	1.22	-0.750			
0.8481	54277.81	3.0500	3.0501	-0.1307	26.24	1.23	-0.750			
0.8485	54302.85	3.0470	3.0471	-0.1294	26.24	1.23	-0.750			
0.8489	54327.39	3.0440	3.0439	-0.1278	26.25	1.24	-0.750			
0.8492	54351.75	3.0410	3.0410	-0.1269	26.25	1.24	-0.750			
0.8496	54375.87	3.0380	3.0381	-0.1259	26.26	1.25	-0.750			
0.8500	54399.94	3.0350	3.0350	-0.1258	26.26	1.25	-0.750			
0.8504	54424.11	3.0320	3.0320	-0.1253	26.27	1.26	-0.750			
0.8508	54448.04	3.0290	3.0290	-0.1247	26.27	1.26	-0.750			
0.8511	54471.99	3.0260	3.0259	-0.1241	26.28	1.27	-0.750			
0.8515	54495.77	3.0230	3.0231	-0.1236	26.28	1.27	-0.750			
0.8519	54519.88	3.0200	3.0200	-0.1223	26.29	1.28	-0.750			
0.8522	54543.36	3.0170	3.0169	-0.1208	26.29	1.28	-0.750			
0.8526	54566.20	3.0140	3.0141	-0.1197	26.30	1.29	-0.750			
0.8530	54588.89	3.0110	3.0110	-0.1181	26.30	1.29	-0.751			
0.8533	54611.47	3.0080	3.0079	-0.1170	26.31	1.30	-0.751			
0.8537	54633.76	3.0050	3.0049	-0.1161	26.31	1.30	-0.751			
0.8540	54655.97	3.0020	3.0020	-0.1198	26.32	1.31	-0.751			
