Ah_balance (normalized)	Ah_balance (mAh)	Voltage - fit (V)	Voltage -  interpolate (V)	dQ/dV (1/V)	Temperature (°C)	Temperature - diff (°C)	Current (C)	R_DC 0ms (mOhm)	R_DC 50ms (mOhm)	R_DC 50 ms PEC (mOhm)
0.1981	12678.89	3.9360	3.9358	-0.1184	25.40	0.01	-0.750			
0.1985	12706.99	3.9330	3.9329	-0.1708	25.40	0.01	-0.750			
0.1991	12744.96	3.9300	3.9300	-0.2201	25.40	0.01	-0.750			
0.1999	12792.32	3.9270	3.9270	-0.2669	25.40	0.01	-0.750			
0.2008	12848.71	3.9240	3.9240	-0.3097	25.39	0.00	-0.750			
0.2018	12913.16	3.9210	3.9210	-0.3556	25.39	0.00	-0.750			
0.2029	12985.94	3.9180	3.9180	-0.3966	25.39	0.00	-0.750			
0.2042	13066.39	3.9150	3.9150	-0.4336	25.39	0.00	-0.750			
0.2055	13154.41	3.9120	3.9119	-0.4678	25.39	0.00	-0.750			
0.2070	13248.13	3.9090	3.9091	-0.4986	25.39	-0.00	-0.750			
0.2086	13347.61	3.9060	3.9060	-0.5300	25.39	-0.00	-0.750			
0.2102	13452.69	3.9030	3.9030	-0.5558	25.39	-0.00	-0.750			
0.2119	13562.06	3.9000	3.9000	-0.5779	25.39	-0.00	-0.750			
0.2137	13676.46	3.8970	3.8970	-0.5993	25.38	-0.01	-0.750			
0.2155	13794.67	3.8940	3.8941	-0.6149	25.38	-0.01	-0.750			
0.2174	13915.63	3.8910	3.8910	-0.6308	25.38	-0.01	-0.750			
0.2193	14038.02	3.8880	3.8880	-0.6381	25.38	-0.01	-0.750			
0.2213	14161.02	3.8850	3.8850	-0.6471	25.38	-0.01	-0.750			
0.2232	14286.63	3.8820	3.8820	-0.6544	25.38	-0.01	-0.750			
0.2252	14413.59	3.8790	3.8790	-0.6604	25.38	-0.01	-0.750			
0.2272	14541.03	3.8760	3.8760	-0.6656	25.39	-0.00	-0.750			
0.2292	14669.47	3.8730	3.8730	-0.6697	25.39	-0.00	-0.750			
0.2312	14798.47	3.8700	3.8700	-0.6733	25.39	-0.00	-0.750			
0.2333	14928.26	3.8670	3.8670	-0.6783	25.39	0.00	-0.750			
0.2353	15057.36	3.8640	3.8640	-0.6818	25.39	0.00	-0.750			
0.2373	15190.13	3.8610	3.8610	-0.6859	25.39	0.00	-0.750			
0.2394	15322.64	3.8580	3.8580	-0.6887	25.39	0.00	-0.750			
0.2415	15455.76	3.8550	3.8550	-0.6904	25.39	0.00	-0.750			
0.2436	15588.47	3.8520	3.8520	-0.6916	25.39	0.00	-0.750			
0.2456	15721.59	3.8490	3.8489	-0.6906	25.39	0.00	-0.750			
0.2477	15853.88	3.8460	3.8460	-0.6888	25.39	0.00	-0.750			
0.2498	15985.11	3.8430	3.8430	-0.6884	25.39	0.00	-0.750			
0.2518	16118.03	3.8400	3.8400	-0.6902	25.40	0.01	-0.750			
0.2539	16250.69	3.8370	3.8369	-0.6898	25.40	0.01	-0.750			
0.2560	16382.85	3.8340	3.8340	-0.6899	25.40	0.01	-0.750			
0.2581	16515.75	3.8310	3.8310	-0.6883	25.40	0.01	-0.750			
0.2601	16647.90	3.8280	3.8280	-0.6894	25.41	0.02	-0.750			
0.2622	16779.42	3.8250	3.8250	-0.6919	25.41	0.02	-0.750			
0.2643	16912.16	3.8220	3.8220	-0.6936	25.41	0.02	-0.750			
0.2664	17046.52	3.8190	3.8189	-0.6949	25.42	0.03	-0.750			
0.2684	17180.32	3.8160	3.8160	-0.6956	25.42	0.03	-0.750			
0.2705	17314.63	3.8130	3.8130	-0.6960	25.42	0.03	-0.750			
0.2726	17448.92	3.8100	3.8100	-0.6940	25.43	0.04	-0.750			
0.2747	17580.45	3.8070	3.8070	-0.6915	25.43	0.04	-0.750			
0.2768	17712.35	3.8040	3.8040	-0.6918	25.43	0.04	-0.750			
0.2788	17845.62	3.8010	3.8010	-0.6949	25.44	0.05	-0.750			
0.2809	17979.24	3.7980	3.7979	-0.6983	25.44	0.05	-0.750			
0.2830	18113.31	3.7950	3.7950	-0.7009	25.44	0.05	-0.750			
0.2851	18249.52	3.7920	3.7920	-0.7005	25.45	0.06	-0.750			
0.2873	18385.05	3.7890	3.7889	-0.7022	25.45	0.06	-0.750			
0.2894	18518.72	3.7860	3.7860	-0.7010	25.45	0.06	-0.750			
0.2915	18653.03	3.7830	3.7831	-0.7000	25.46	0.07	-0.750			
0.2935	18786.88	3.7800	3.7800	-0.7014	25.46	0.07	-0.750			
0.2956	18921.01	3.7770	3.7770	-0.7019	25.46	0.07	-0.750			
0.2977	19055.87	3.7740	3.7741	-0.7067	25.46	0.07	-0.750			
0.2999	19192.91	3.7710	3.7709	-0.7127	25.46	0.07	-0.750			
0.3020	19328.80	3.7680	3.7680	-0.7150	25.45	0.06	-0.750			
0.3042	19466.76	3.7650	3.7650	-0.7173	25.45	0.06	-0.750			
0.3063	19605.57	3.7620	3.7620	-0.7218	25.45	0.06	-0.750			
0.3085	19744.12	3.7590	3.7590	-0.7260	25.45	0.06	-0.750			
0.3107	19884.24	3.7560	3.7560	-0.7307	25.45	0.06	-0.750			
0.3129	20023.79	3.7530	3.7530	-0.7350	25.45	0.06	-0.750			
0.3151	20166.10	3.7500	3.7500	-0.7400	25.46	0.07	-0.750			
0.3173	20308.21	3.7470	3.7470	-0.7450	25.46	0.07	-0.750			
0.3196	20452.32	3.7440	3.7440	-0.7497	25.46	0.07	-0.750			
0.3218	20596.53	3.7410	3.7410	-0.7547	25.46	0.07	-0.750			
0.3241	20741.02	3.7380	3.7380	-0.7635	25.46	0.07	-0.750			
0.3264	20888.37	3.7350	3.7349	-0.7699	25.46	0.07	-0.750			
0.3287	21037.04	3.7320	3.7320	-0.7769	25.46	0.07	-0.750			
0.3311	21187.37	3.7290	3.7290	-0.7854	25.46	0.07	-0.750			
0.3334	21339.01	3.7260	3.7260	-0.7937	25.46	0.07	-0.750			
0.3358	21492.39	3.7230	3.7230	-0.8027	25.46	0.07	-0.750			
0.3382	21646.25	3.7200	3.7200	-0.8067	25.46	0.07	-0.750			
0.3406	21801.34	3.7170	3.7170	-0.8139	25.46	0.07	-0.750			
0.3431	21959.56	3.7140	3.7140	-0.8254	25.46	0.07	-0.750			
0.3456	22118.20	3.7110	3.7110	-0.8341	25.46	0.07	-0.750			
0.3481	22278.02	3.7080	3.7080	-0.8485	25.46	0.07	-0.750			
0.3507	22442.52	3.7050	3.7050	-0.8618	25.45	0.06	-0.750			
0.3533	22608.73	3.7020	3.7020	-0.8790	25.45	0.06	-0.750			
0.3559	22779.88	3.6990	3.6990	-0.8967	25.45	0.06	-0.750			
0.3586	22952.76	3.6960	3.6960	-0.9173	25.45	0.06	-0.750			
0.3614	23132.49	3.6930	3.6930	-0.9291	25.45	0.06	-0.750			
0.3643	23313.76	3.6900	3.6899	-0.9408	25.44	0.05	-0.750			
0.3671	23494.53	3.6870	3.6870	-0.9530	25.44	0.05	-0.750			
0.3700	23679.28	3.6840	3.6841	-0.9690	25.44	0.05	-0.750			
0.3729	23863.90	3.6810	3.6809	-0.9881	25.44	0.05	-0.750			
0.3758	24053.06	3.6780	3.6780	-1.0106	25.44	0.05	-0.750			
0.3789	24249.02	3.6750	3.6750	-1.0336	25.44	0.05	-0.750			
0.3821	24452.12	3.6720	3.6721	-1.0677	25.44	0.05	-0.750			
0.3853	24660.83	3.6690	3.6690	-1.0945	25.43	0.04	-0.750			
0.3886	24873.07	3.6660	3.6660	-1.1183	25.43	0.04	-0.750			
0.3920	25089.38	3.6630	3.6630	-1.1435	25.42	0.03	-0.750			
0.3955	25311.56	3.6600	3.6600	-1.1695	25.42	0.03	-0.750			
0.3991	25539.41	3.6570	3.6570	-1.1955	25.42	0.03	-0.750			
0.4027	25772.47	3.6540	3.6540	-1.2237	25.42	0.03	-0.750			
0.4064	26008.60	3.6510	3.6511	-1.2470	25.42	0.03	-0.750			
0.4102	26251.29	3.6480	3.6479	-1.2762	25.42	0.03	-0.750			
0.4140	26497.95	3.6450	3.6450	-1.2991	25.41	0.02	-0.750			
0.4180	26748.96	3.6420	3.6420	-1.3278	25.41	0.02	-0.750			
0.4220	27006.06	3.6390	3.6390	-1.3574	25.41	0.02	-0.750			
0.4261	27270.56	3.6360	3.6360	-1.3863	25.40	0.01	-0.750			
0.4303	27539.25	3.6330	3.6330	-1.4143	25.39	0.00	-0.750			
0.4346	27812.75	3.6300	3.6300	-1.4472	25.39	0.00	-0.750			
0.4389	28091.88	3.6270	3.6270	-1.4849	25.39	0.00	-0.750			
0.4435	28383.02	3.6240	3.6240	-1.5134	25.39	0.00	-0.750			
0.4481	28676.80	3.6210	3.6210	-1.5450	25.39	0.00	-0.750			
0.4528	28979.61	3.6180	3.6180	-1.5771	25.39	0.00	-0.750			
0.4576	29283.64	3.6150	3.6150	-1.6107	25.39	0.00	-0.750			
0.4624	29594.21	3.6120	3.6122	-1.6420	25.39	0.00	-0.750			
0.4674	29911.54	3.6090	3.6088	-1.6689	25.39	0.00	-0.750			
0.4724	30234.87	3.6060	3.6059	-1.7011	25.39	0.00	-0.750			
0.4776	30566.02	3.6030	3.6030	-1.7380	25.39	0.00	-0.750			
0.4829	30903.66	3.6000	3.6000	-1.7749	25.39	-0.00	-0.750			
0.4882	31244.32	3.5970	3.5969	-1.7942	25.38	-0.01	-0.750			
0.4936	31593.28	3.5940	3.5940	-1.8233	25.38	-0.01	-0.750			
0.4992	31947.77	3.5910	3.5910	-1.8612	25.38	-0.01	-0.750			
0.5048	32310.33	3.5880	3.5880	-1.8956	25.37	-0.02	-0.750			
0.5106	32675.72	3.5850	3.5850	-1.9147	25.37	-0.02	-0.750			
0.5164	33046.90	3.5820	3.5821	-1.9402	25.38	-0.01	-0.750			
0.5222	33420.24	3.5790	3.5790	-1.9786	25.38	-0.01	-0.750			
0.5282	33802.83	3.5760	3.5760	-1.9987	25.38	-0.01	-0.750			
0.5342	34187.61	3.5730	3.5730	-2.0187	25.38	-0.01	-0.750			
0.5404	34583.65	3.5700	3.5701	-2.0410	25.39	-0.00	-0.750	0.382	0.557	
0.5465	34976.04	3.5670	3.5670	-2.0598	25.39	0.00	-0.750			
0.5527	35370.53	3.5640	3.5641	-2.0698	25.39	0.00	-0.750			
0.5589	35769.74	3.5610	3.5609	-2.0842	25.39	0.00	-0.750			
0.5652	36174.80	3.5580	3.5581	-2.0918	25.40	0.01	-0.750			
0.5716	36579.66	3.5550	3.5551	-2.0944	25.41	0.02	-0.750			
0.5779	36985.32	3.5520	3.5520	-2.0973	25.42	0.03	-0.750			
0.5841	37380.48	3.5490	3.5490	-2.0853	25.42	0.03	-0.750			
0.5903	37782.12	3.5460	3.5460	-2.0742	25.42	0.03	-0.750			
0.5966	38184.55	3.5430	3.5429	-2.0786	25.42	0.03	-0.750			
0.6029	38588.21	3.5400	3.5400	-2.0657	25.42	0.03	-0.750			
0.6091	38979.60	3.5370	3.5370	-2.0242	25.42	0.03	-0.750			
0.6151	39365.30	3.5340	3.5340	-1.9973	25.42	0.03	-0.750			
0.6210	39743.94	3.5310	3.5310	-1.9661	25.42	0.03	-0.750			
0.6269	40119.17	3.5280	3.5280	-1.9455	25.43	0.04	-0.750			
0.6327	40489.78	3.5250	3.5250	-1.8950	25.44	0.05	-0.750			
0.6384	40855.09	3.5220	3.5221	-1.8653	25.45	0.06	-0.750			
0.6439	41209.95	3.5190	3.5191	-1.8184	25.46	0.07	-0.750			
0.6493	41554.07	3.5160	3.5159	-1.7713	25.47	0.08	-0.750			
0.6545	41889.24	3.5130	3.5130	-1.7268	25.48	0.09	-0.750			
0.6596	42217.18	3.5100	3.5102	-1.6854	25.49	0.10	-0.750			
0.6647	42538.93	3.5070	3.5070	-1.6467	25.51	0.12	-0.750			
0.6695	42849.03	3.5040	3.5041	-1.5943	25.52	0.13	-0.750			
0.6742	43150.08	3.5010	3.5010	-1.5427	25.53	0.14	-0.750			
0.6788	43442.89	3.4980	3.4980	-1.5077	25.54	0.15	-0.750			
0.6832	43724.69	3.4950	3.4951	-1.4548	25.56	0.17	-0.750			
0.6875	44000.66	3.4920	3.4919	-1.4146	25.57	0.18	-0.750			
0.6917	44266.19	3.4890	3.4889	-1.3712	25.59	0.20	-0.750			
0.6957	44525.24	3.4860	3.4860	-1.3323	25.61	0.22	-0.750			
0.6997	44778.19	3.4830	3.4830	-1.2971	25.62	0.23	-0.750			
0.7035	45023.89	3.4800	3.4800	-1.2604	25.63	0.24	-0.750			
0.7072	45258.90	3.4770	3.4771	-1.2252	25.64	0.25	-0.750			
0.7108	45494.05	3.4740	3.4739	-1.1989	25.65	0.26	-0.750			
0.7144	45719.02	3.4710	3.4710	-1.1698	25.66	0.27	-0.750			
0.7178	45940.93	3.4680	3.4680	-1.1457	25.68	0.29	-0.750			
0.7212	46156.83	3.4650	3.4649	-1.1296	25.69	0.30	-0.750			
0.7246	46372.02	3.4620	3.4620	-1.1136	25.70	0.31	-0.750			
0.7278	46581.70	3.4590	3.4590	-1.1051	25.71	0.32	-0.750			
0.7311	46792.71	3.4560	3.4561	-1.0973	25.72	0.33	-0.750			
0.7344	47004.30	3.4530	3.4530	-1.0938	25.73	0.34	-0.750			
0.7377	47213.54	3.4500	3.4500	-1.0857	25.74	0.35	-0.750			
0.7410	47421.92	3.4470	3.4470	-1.0799	25.76	0.37	-0.750			
0.7442	47627.02	3.4440	3.4441	-1.0719	25.77	0.38	-0.750			
0.7474	47833.29	3.4410	3.4410	-1.0681	25.78	0.39	-0.750			
0.7506	48037.37	3.4380	3.4380	-1.0582	25.79	0.40	-0.750			
0.7538	48240.41	3.4350	3.4350	-1.0539	25.80	0.41	-0.750			
0.7569	48442.14	3.4320	3.4321	-1.0467	25.81	0.42	-0.750			
0.7600	48642.92	3.4290	3.4290	-1.0366	25.82	0.43	-0.750			
0.7631	48841.55	3.4260	3.4259	-1.0232	25.83	0.44	-0.750			
0.7662	49037.22	3.4230	3.4229	-1.0082	25.83	0.44	-0.750			
0.7692	49229.66	3.4200	3.4202	-0.9932	25.84	0.45	-0.750			
0.7722	49418.96	3.4170	3.4170	-0.9779	25.85	0.46	-0.750			
0.7751	49604.79	3.4140	3.4140	-0.9606	25.86	0.47	-0.750			
0.7779	49787.98	3.4110	3.4110	-0.9443	25.87	0.48	-0.750			
0.7808	49968.36	3.4080	3.4080	-0.9249	25.88	0.49	-0.750			
0.7835	50144.45	3.4050	3.4050	-0.9043	25.88	0.49	-0.750			
0.7862	50316.67	3.4020	3.4020	-0.8823	25.89	0.50	-0.750			
0.7888	50483.45	3.3990	3.3991	-0.8579	25.89	0.50	-0.750			
0.7913	50646.35	3.3960	3.3960	-0.8309	25.90	0.51	-0.750			
0.7938	50804.24	3.3930	3.3930	-0.8037	25.90	0.51	-0.750			
0.7962	50956.03	3.3900	3.3900	-0.7773	25.91	0.52	-0.750			
0.7985	51103.33	3.3870	3.3870	-0.7498	25.91	0.52	-0.750			
0.8007	51244.31	3.3840	3.3839	-0.7175	25.92	0.53	-0.750			
0.8028	51379.54	3.3810	3.3810	-0.6864	25.93	0.54	-0.750			
0.8048	51508.27	3.3780	3.3780	-0.6547	25.93	0.54	-0.750			
0.8067	51630.70	3.3750	3.3751	-0.6254	25.94	0.55	-0.750			
0.8086	51747.61	3.3720	3.3719	-0.5948	25.95	0.56	-0.750			
0.8103	51857.76	3.3690	3.3690	-0.5669	25.95	0.56	-0.750			
0.8119	51963.63	3.3660	3.3660	-0.5404	25.96	0.57	-0.750			
0.8135	52065.25	3.3630	3.3630	-0.5185	25.96	0.57	-0.750			
0.8150	52162.30	3.3600	3.3600	-0.4912	25.97	0.58	-0.750			
0.8165	52253.94	3.3570	3.3570	-0.4678	25.97	0.58	-0.750			
0.8178	52340.94	3.3540	3.3540	-0.4461	25.98	0.59	-0.750			
0.8191	52423.54	3.3510	3.3513	-0.4275	25.98	0.59	-0.750			
0.8204	52503.37	3.3480	3.3480	-0.4092	25.99	0.60	-0.750			
0.8216	52580.24	3.3450	3.3449	-0.3919	25.99	0.60	-0.750			
0.8227	52653.82	3.3420	3.3420	-0.3752	25.99	0.60	-0.750			
0.8238	52724.65	3.3390	3.3391	-0.3629	26.00	0.61	-0.750			
0.8249	52792.22	3.3360	3.3360	-0.3469	26.00	0.61	-0.750			
0.8259	52856.73	3.3330	3.3330	-0.3328	26.01	0.62	-0.750			
0.8269	52919.13	3.3300	3.3300	-0.3213	26.01	0.62	-0.750			
0.8278	52979.48	3.3270	3.3270	-0.3119	26.01	0.62	-0.750			
0.8287	53038.59	3.3240	3.3240	-0.3022	26.02	0.63	-0.750			
0.8296	53095.40	3.3210	3.3209	-0.2929	26.02	0.63	-0.750			
0.8305	53150.29	3.3180	3.3180	-0.2845	26.03	0.64	-0.750			
0.8313	53204.33	3.3150	3.3151	-0.2774	26.03	0.64	-0.750			
0.8321	53256.70	3.3120	3.3119	-0.2703	26.03	0.64	-0.750			
0.8329	53308.07	3.3090	3.3090	-0.2631	26.04	0.65	-0.750			
0.8337	53357.96	3.3060	3.3060	-0.2562	26.04	0.65	-0.750			
0.8345	53406.29	3.3030	3.3030	-0.2491	26.05	0.66	-0.750			
0.8352	53453.22	3.3000	3.3001	-0.2432	26.05	0.66	-0.750			
0.8359	53499.05	3.2970	3.2970	-0.2375	26.05	0.66	-0.750			
0.8366	53544.21	3.2940	3.2940	-0.2329	26.06	0.67	-0.750			
0.8373	53588.31	3.2910	3.2909	-0.2280	26.06	0.67	-0.750			
0.8380	53631.69	3.2880	3.2880	-0.2229	26.07	0.68	-0.750			
0.8387	53673.97	3.2850	3.2851	-0.2197	26.07	0.68	-0.750			
0.8393	53715.74	3.2820	3.2820	-0.2154	26.07	0.68	-0.750			
0.8399	53756.61	3.2790	3.2790	-0.2115	26.08	0.69	-0.750			
0.8406	53796.58	3.2760	3.2759	-0.2069	26.08	0.69	-0.750			
0.8412	53835.88	3.2730	3.2730	-0.2036	26.08	0.69	-0.750			
0.8418	53874.67	3.2700	3.2701	-0.2005	26.09	0.70	-0.750			
0.8424	53912.94	3.2670	3.2670	-0.1974	26.09	0.70	-0.750			
0.8430	53950.50	3.2640	3.2640	-0.1948	26.09	0.70	-0.750			
0.8435	53987.16	3.2610	3.2610	-0.1909	26.10	0.71	-0.750			
0.8441	54023.63	3.2580	3.2580	-0.1889	26.10	0.71	-0.750			
0.8447	54059.74	3.2550	3.2550	-0.1868	26.10	0.71	-0.750			
0.8452	54095.59	3.2520	3.2519	-0.1845	26.11	0.72	-0.750			
0.8458	54130.81	3.2490	3.2490	-0.1817	26.11	0.72	-0.750			
0.8463	54165.43	3.2460	3.2460	-0.1789	26.12	0.73	-0.750			
0.8469	54199.59	3.2430	3.2430	-0.1765	26.12	0.73	-0.750			
0.8474	54232.95	3.2400	3.2400	-0.1742	26.13	0.74	-0.750			
0.8479	54266.06	3.2370	3.2370	-0.1718	26.13	0.74	-0.750			
0.8484	54298.88	3.2340	3.2340	-0.1701	26.14	0.75	-0.750			
0.8489	54331.30	3.2310	3.2310	-0.1678	26.14	0.75	-0.750			
0.8494	54363.51	3.2280	3.2280	-0.1660	26.14	0.75	-0.750			
0.8499	54395.16	3.2250	3.2251	-0.1643	26.15	0.76	-0.750			
0.8504	54426.49	3.2220	3.2220	-0.1621	26.15	0.76	-0.750			
0.8509	54457.34	3.2190	3.2190	-0.1602	26.16	0.77	-0.750			
0.8514	54487.62	3.2160	3.2160	-0.1584	26.16	0.77	-0.750			
0.8518	54517.93	3.2130	3.2130	-0.1570	26.16	0.77	-0.750			
0.8523	54547.95	3.2100	3.2100	-0.1558	26.17	0.78	-0.750			
0.8528	54577.74	3.2070	3.2070	-0.1548	26.17	0.78	-0.750			
0.8532	54607.39	3.2040	3.2040	-0.1536	26.17	0.78	-0.750			
0.8537	54636.73	3.2010	3.2010	-0.1524	26.18	0.79	-0.750			
0.8542	54665.98	3.1980	3.1980	-0.1505	26.18	0.79	-0.750			
0.8546	54694.78	3.1950	3.1950	-0.1493	26.19	0.80	-0.750			
0.8551	54723.21	3.1920	3.1921	-0.1476	26.19	0.80	-0.750			
0.8555	54751.41	3.1890	3.1889	-0.1462	26.19	0.80	-0.750			
0.8559	54779.46	3.1860	3.1859	-0.1443	26.20	0.81	-0.750			
0.8564	54806.80	3.1830	3.1830	-0.1428	26.20	0.81	-0.750			
0.8568	54834.06	3.1800	3.1800	-0.1415	26.20	0.81	-0.750			
0.8572	54861.11	3.1770	3.1770	-0.1403	26.21	0.82	-0.750			
0.8576	54887.89	3.1740	3.1740	-0.1398	26.21	0.82	-0.750			
0.8580	54914.44	3.1710	3.1711	-0.1385	26.21	0.82	-0.750			
0.8585	54941.08	3.1680	3.1679	-0.1377	26.22	0.83	-0.750			
0.8589	54967.45	3.1650	3.1650	-0.1370	26.22	0.83	-0.750			
0.8593	54993.99	3.1620	3.1620	-0.1355	26.22	0.83	-0.750			
0.8597	55019.83	3.1590	3.1590	-0.1342	26.23	0.84	-0.750			
0.8601	55045.37	3.1560	3.1560	-0.1331	26.23	0.84	-0.750			
0.8605	55070.80	3.1530	3.1531	-0.1318	26.24	0.85	-0.750			
0.8609	55095.80	3.1500	3.1499	-0.1304	26.24	0.85	-0.750			
0.8613	55120.78	3.1470	3.1470	-0.1294	26.24	0.85	-0.750			
0.8616	55145.53	3.1440	3.1440	-0.1284	26.25	0.86	-0.750			
0.8620	55170.07	3.1410	3.1410	-0.1274	26.25	0.86	-0.750			
0.8624	55194.59	3.1380	3.1380	-0.1266	26.25	0.86	-0.750			
0.8628	55218.58	3.1350	3.1350	-0.1255	26.26	0.87	-0.750			
0.8632	55242.47	3.1320	3.1320	-0.1244	26.26	0.87	-0.750			
0.8635	55266.40	3.1290	3.1290	-0.1237	26.26	0.87	-0.750			
0.8639	55290.14	3.1260	3.1259	-0.1230	26.27	0.88	-0.750			
0.8643	55313.72	3.1230	3.1230	-0.1221	26.27	0.88	-0.750			
0.8646	55337.13	3.1200	3.1201	-0.1212	26.27	0.88	-0.750			
0.8650	55360.30	3.1170	3.1170	-0.1202	26.28	0.89	-0.750			
0.8654	55383.31	3.1140	3.1140	-0.1192	26.28	0.89	-0.750			
0.8657	55406.02	3.1110	3.1110	-0.1182	26.28	0.89	-0.750			
0.8661	55428.54	3.1080	3.1081	-0.1172	26.29	0.90	-0.750			
0.8664	55450.93	3.1050	3.1049	-0.1164	26.29	0.90	-0.750			
0.8668	55473.17	3.1020	3.1020	-0.1156	26.29	0.90	-0.750			
0.8671	55495.30	3.0990	3.0990	-0.1150	26.30	0.91	-0.750			
0.8675	55517.29	3.0960	3.0960	-0.1143	26.30	0.91	-0.750			
0.8678	55539.18	3.0930	3.0929	-0.1135	26.30	0.91	-0.750			
0.8681	55560.96	3.0900	3.0900	-0.1129	26.30	0.91	-0.750			
0.8685	55582.59	3.0870	3.0871	-0.1119	26.30	0.91	-0.750			
0.8688	55604.05	3.0840	3.0839	-0.1110	26.30	0.91	-0.750			
0.8691	55625.25	3.0810	3.0810	-0.1102	26.30	0.91	-0.750			
0.8695	55646.32	3.0780	3.0780	-0.1093	26.30	0.91	-0.750			
0.8698	55667.18	3.0750	3.0750	-0.1085	26.31	0.92	-0.750			
0.8701	55687.87	3.0720	3.0720	-0.1077	26.31	0.92	-0.750			
0.8704	55708.40	3.0690	3.0690	-0.1070	26.32	0.93	-0.750			
0.8708	55728.90	3.0660	3.0660	-0.1065	26.32	0.93	-0.750			
0.8711	55749.27	3.0630	3.0630	-0.1060	26.32	0.93	-0.750			
0.8714	55769.59	3.0600	3.0600	-0.1056	26.33	0.94	-0.750			
0.8717	55789.92	3.0570	3.0570	-0.1048	26.33	0.94	-0.750			
0.8720	55809.96	3.0540	3.0540	-0.1040	26.34	0.95	-0.750			
0.8723	55829.96	3.0510	3.0510	-0.1032	26.34	0.95	-0.750			
0.8727	55849.68	3.0480	3.0480	-0.1022	26.34	0.95	-0.750			
0.8730	55869.09	3.0450	3.0451	-0.1017	26.35	0.96	-0.750			
0.8733	55888.55	3.0420	3.0419	-0.1010	26.35	0.96	-0.750			
0.8736	55907.79	3.0390	3.0390	-0.1000	26.36	0.97	-0.750			
0.8739	55926.94	3.0360	3.0360	-0.0995	26.36	0.97	-0.750			
0.8742	55946.07	3.0330	3.0330	-0.0990	26.36	0.97	-0.750			
0.8745	55965.01	3.0300	3.0301	-0.0983	26.37	0.98	-0.750			
0.8747	55983.81	3.0270	3.0270	-0.0978	26.37	0.98	-0.750			
0.8750	56002.52	3.0240	3.0239	-0.0971	26.37	0.98	-0.750			
0.8753	56020.94	3.0210	3.0211	-0.0964	26.38	0.99	-0.750			
0.8756	56039.42	3.0180	3.0179	-0.0961	26.38	0.99	-0.750			
0.8759	56057.93	3.0150	3.0149	-0.0956	26.38	0.99	-0.750			
0.8762	56076.24	3.0120	3.0121	-0.0951	26.39	1.00	-0.750			
0.8765	56094.48	3.0090	3.0091	-0.0945	26.39	1.00	-0.750			
0.8768	56112.55	3.0060	3.0060	-0.0938	26.39	1.00	-0.750			
0.8770	56130.50	3.0030	3.0030	-0.0926	26.40	1.01	-0.750			
