Ah_balance (normalized)	Ah_balance (mAh)	Voltage - fit (V)	Voltage -  interpolate (V)	dQ/dV (1/V)	Temperature (°C)	Temperature - diff (°C)	Current (C)	R_DC 0ms (mOhm)	R_DC 50ms (mOhm)	R_DC 50 ms PEC (mOhm)
0.1928	12341.91	3.9260	3.9258	-0.1061	25.73	0.00	-1.500			
0.1932	12365.15	3.9230	3.9228	-0.1357	25.73	0.00	-1.500			
0.1937	12394.04	3.9200	3.9200	-0.1652	25.73	0.00	-1.500			
0.1942	12429.14	3.9170	3.9170	-0.1923	25.73	0.00	-1.500			
0.1948	12468.82	3.9140	3.9140	-0.2187	25.73	0.00	-1.500			
0.1955	12514.18	3.9110	3.9111	-0.2456	25.73	0.00	-1.500			
0.1963	12563.10	3.9080	3.9080	-0.2720	25.73	0.00	-1.500			
0.1972	12617.97	3.9050	3.9050	-0.2964	25.73	0.00	-1.500			
0.1981	12677.58	3.9020	3.9020	-0.3205	25.73	0.00	-1.500			
0.1991	12741.73	3.8990	3.8989	-0.3440	25.73	0.00	-1.500			
0.2002	12810.28	3.8960	3.8962	-0.3692	25.73	0.00	-1.500			
0.2013	12883.14	3.8930	3.8930	-0.3940	25.73	0.00	-1.500			
0.2025	12960.91	3.8900	3.8900	-0.4186	25.73	0.00	-1.500			
0.2038	13043.56	3.8870	3.8869	-0.4428	25.73	0.00	-1.500			
0.2052	13131.19	3.8840	3.8841	-0.4637	25.73	0.00	-1.500			
0.2066	13224.00	3.8810	3.8810	-0.4864	25.73	0.00	-1.500			
0.2081	13319.38	3.8780	3.8780	-0.5055	25.73	0.00	-1.500			
0.2096	13417.22	3.8750	3.8751	-0.5274	25.73	0.00	-1.500			
0.2113	13520.43	3.8720	3.8720	-0.5488	25.73	0.00	-1.500			
0.2130	13628.90	3.8690	3.8689	-0.5642	25.73	0.00	-1.500			
0.2147	13740.05	3.8660	3.8660	-0.5781	25.73	0.00	-1.500			
0.2165	13854.59	3.8630	3.8631	-0.5915	25.73	0.00	-1.500			
0.2183	13968.65	3.8600	3.8600	-0.5988	25.73	0.00	-1.500			
0.2201	14083.35	3.8570	3.8570	-0.6092	25.73	0.00	-1.500			
0.2219	14200.21	3.8540	3.8539	-0.6186	25.73	0.00	-1.500			
0.2238	14320.43	3.8510	3.8510	-0.6286	25.73	0.00	-1.500			
0.2257	14443.15	3.8480	3.8481	-0.6397	25.73	0.00	-1.500			
0.2276	14567.76	3.8450	3.8450	-0.6481	25.73	0.00	-1.500			
0.2296	14692.68	3.8420	3.8420	-0.6540	25.73	0.00	-1.500			
0.2315	14818.33	3.8390	3.8390	-0.6575	25.74	0.01	-1.500			
0.2335	14944.91	3.8360	3.8359	-0.6606	25.74	0.01	-1.500			
0.2355	15072.72	3.8330	3.8331	-0.6652	25.74	0.01	-1.500			
0.2375	15200.85	3.8300	3.8300	-0.6696	25.74	0.01	-1.500			
0.2395	15330.25	3.8270	3.8270	-0.6726	25.75	0.02	-1.500			
0.2416	15460.06	3.8240	3.8240	-0.6743	25.75	0.02	-1.500			
0.2436	15588.17	3.8210	3.8210	-0.6789	25.75	0.02	-1.500			
0.2456	15719.74	3.8180	3.8180	-0.6819	25.75	0.02	-1.500			
0.2477	15851.54	3.8150	3.8149	-0.6840	25.76	0.03	-1.500			
0.2497	15982.94	3.8120	3.8120	-0.6838	25.76	0.03	-1.500			
0.2518	16114.20	3.8090	3.8090	-0.6848	25.76	0.03	-1.500			
0.2538	16245.70	3.8060	3.8061	-0.6864	25.76	0.03	-1.500			
0.2559	16377.63	3.8030	3.8029	-0.6858	25.77	0.04	-1.500			
0.2579	16508.67	3.8000	3.8000	-0.6848	25.77	0.04	-1.500			
0.2600	16641.15	3.7970	3.7970	-0.6885	25.77	0.04	-1.500			
0.2621	16773.61	3.7940	3.7941	-0.6883	25.78	0.05	-1.500			
0.2641	16905.46	3.7910	3.7910	-0.6881	25.78	0.05	-1.500			
0.2662	17037.91	3.7880	3.7880	-0.6853	25.78	0.05	-1.500			
0.2683	17168.88	3.7850	3.7850	-0.6862	25.79	0.06	-1.500			
0.2703	17300.40	3.7820	3.7820	-0.6867	25.79	0.06	-1.500			
0.2724	17431.47	3.7790	3.7790	-0.6899	25.79	0.06	-1.500			
0.2744	17563.87	3.7760	3.7759	-0.6925	25.80	0.07	-1.500			
0.2765	17698.03	3.7730	3.7730	-0.6964	25.80	0.07	-1.500			
0.2786	17832.35	3.7700	3.7700	-0.6979	25.81	0.08	-1.500			
0.2807	17967.04	3.7670	3.7670	-0.7002	25.81	0.08	-1.500			
0.2828	18102.07	3.7640	3.7641	-0.7000	25.82	0.09	-1.500			
0.2849	18235.54	3.7610	3.7610	-0.6984	25.82	0.09	-1.500			
0.2870	18369.09	3.7580	3.7580	-0.6967	25.83	0.10	-1.500			
0.2891	18502.11	3.7550	3.7551	-0.6993	25.83	0.10	-1.500			
0.2912	18636.38	3.7520	3.7520	-0.7013	25.84	0.11	-1.500			
0.2933	18770.58	3.7490	3.7490	-0.7081	25.84	0.11	-1.500			
0.2954	18906.77	3.7460	3.7459	-0.7131	25.85	0.12	-1.500			
0.2976	19044.36	3.7430	3.7430	-0.7196	25.85	0.12	-1.500			
0.2998	19184.24	3.7400	3.7399	-0.7215	25.86	0.13	-1.500			
0.3019	19323.48	3.7370	3.7370	-0.7264	25.86	0.13	-1.500			
0.3041	19462.86	3.7340	3.7341	-0.7307	25.87	0.14	-1.500			
0.3063	19603.63	3.7310	3.7309	-0.7337	25.87	0.14	-1.500			
0.3085	19743.50	3.7280	3.7279	-0.7329	25.88	0.15	-1.500			
0.3107	19885.41	3.7250	3.7251	-0.7420	25.88	0.15	-1.500			
0.3129	20027.73	3.7220	3.7220	-0.7478	25.89	0.16	-1.500			
0.3152	20172.05	3.7190	3.7190	-0.7555	25.89	0.16	-1.500			
0.3174	20315.43	3.7160	3.7160	-0.7625	25.90	0.17	-1.500			
0.3198	20464.29	3.7130	3.7130	-0.7696	25.90	0.17	-1.500			
0.3221	20614.71	3.7100	3.7100	-0.7782	25.91	0.18	-1.500			
0.3244	20764.32	3.7070	3.7069	-0.7851	25.92	0.19	-1.500			
0.3268	20915.40	3.7040	3.7041	-0.7907	25.92	0.19	-1.500			
0.3292	21067.90	3.7010	3.7009	-0.7987	25.93	0.20	-1.500			
0.3316	21220.88	3.6980	3.6980	-0.8030	25.93	0.20	-1.500			
0.3340	21373.97	3.6950	3.6951	-0.8105	25.94	0.21	-1.500			
0.3364	21531.56	3.6920	3.6920	-0.8285	25.94	0.21	-1.500			
0.3390	21693.41	3.6890	3.6890	-0.8363	25.95	0.22	-1.500			
0.3415	21853.79	3.6860	3.6860	-0.8469	25.95	0.22	-1.500			
0.3440	22017.78	3.6830	3.6831	-0.8582	25.96	0.23	-1.500			
0.3466	22183.15	3.6800	3.6800	-0.8718	25.96	0.23	-1.500			
0.3493	22352.17	3.6770	3.6769	-0.8812	25.97	0.24	-1.500			
0.3519	22521.27	3.6740	3.6741	-0.8911	25.97	0.24	-1.500			
0.3546	22692.93	3.6710	3.6710	-0.9034	25.97	0.24	-1.500			
0.3573	22868.27	3.6680	3.6679	-0.9223	25.98	0.25	-1.500			
0.3601	23045.88	3.6650	3.6650	-0.9324	25.98	0.25	-1.500			
0.3629	23226.49	3.6620	3.6620	-0.9514	25.98	0.25	-1.500			
0.3658	23411.30	3.6590	3.6590	-0.9628	25.99	0.26	-1.500			
0.3687	23599.00	3.6560	3.6560	-0.9802	25.99	0.26	-1.500			
0.3717	23787.62	3.6530	3.6530	-0.9897	25.99	0.26	-1.500			
0.3747	23978.29	3.6500	3.6500	-1.0029	26.00	0.27	-1.500			
0.3777	24171.22	3.6470	3.6471	-1.0147	26.00	0.27	-1.500			
0.3807	24367.37	3.6440	3.6440	-1.0339	26.01	0.28	-1.500			
0.3838	24566.10	3.6410	3.6410	-1.0492	26.01	0.28	-1.500			
0.3870	24769.49	3.6380	3.6380	-1.0679	26.02	0.29	-1.500			
0.3903	24976.72	3.6350	3.6350	-1.0894	26.02	0.29	-1.500			
0.3936	25190.01	3.6320	3.6320	-1.1094	26.03	0.30	-1.500			
0.3970	25405.85	3.6290	3.6289	-1.1214	26.03	0.30	-1.500			
0.4004	25622.81	3.6260	3.6261	-1.1368	26.04	0.31	-1.500			
0.4038	25841.46	3.6230	3.6230	-1.1562	26.04	0.31	-1.500			
0.4073	26064.42	3.6200	3.6200	-1.1736	26.04	0.31	-1.500			
0.4108	26290.93	3.6170	3.6169	-1.1905	26.05	0.32	-1.500			
0.4144	26518.91	3.6140	3.6141	-1.2129	26.05	0.32	-1.500			
0.4181	26757.92	3.6110	3.6110	-1.2337	26.05	0.32	-1.500			
0.4218	26996.74	3.6080	3.6079	-1.2519	26.06	0.33	-1.500			
0.4256	27238.18	3.6050	3.6051	-1.2679	26.06	0.33	-1.500			
0.4294	27482.50	3.6020	3.6020	-1.2862	26.06	0.33	-1.500			
0.4333	27732.14	3.5990	3.5990	-1.3071	26.07	0.34	-1.500			
0.4373	27984.48	3.5960	3.5960	-1.3284	26.07	0.34	-1.500			
0.4413	28240.67	3.5930	3.5930	-1.3453	26.07	0.34	-1.500			
0.4454	28505.00	3.5900	3.5900	-1.3652	26.08	0.35	-1.500			
0.4495	28767.63	3.5870	3.5868	-1.3762	26.08	0.35	-1.500			
0.4536	29032.77	3.5840	3.5840	-1.3942	26.08	0.35	-1.500			
0.4578	29301.95	3.5810	3.5810	-1.4089	26.09	0.36	-1.500			
0.4621	29571.93	3.5780	3.5779	-1.4338	26.09	0.36	-1.500			
0.4664	29847.43	3.5750	3.5750	-1.4510	26.09	0.36	-1.500			
0.4708	30132.96	3.5720	3.5719	-1.4765	26.10	0.37	-1.500			
0.4753	30419.03	3.5690	3.5691	-1.4955	26.10	0.37	-1.500			
0.4798	30708.34	3.5660	3.5660	-1.5099	26.10	0.37	-1.500			
0.4843	30998.21	3.5630	3.5630	-1.5261	26.10	0.37	-1.500			
0.4890	31293.27	3.5600	3.5600	-1.5470	26.10	0.37	-1.500			
0.4936	31591.52	3.5570	3.5569	-1.5600	26.10	0.37	-1.500			
0.4984	31894.83	3.5540	3.5540	-1.5887	26.10	0.37	-1.500			
0.5032	32202.48	3.5510	3.5511	-1.6057	26.10	0.37	-1.500			
0.5080	32512.78	3.5480	3.5479	-1.6254	26.11	0.38	-1.500			
0.5129	32828.36	3.5450	3.5450	-1.6378	26.12	0.39	-1.500			
0.5178	33141.09	3.5420	3.5420	-1.6551	26.13	0.40	-1.500			
0.5228	33462.39	3.5390	3.5390	-1.6794	26.13	0.40	-1.500			
0.5279	33788.48	3.5360	3.5359	-1.6910	26.14	0.41	-1.500			
0.5330	34112.96	3.5330	3.5329	-1.6978	26.15	0.42	-1.500	0.373	0.526	
0.5382	34442.06	3.5300	3.5300	-1.7128	26.16	0.43	-1.500			
0.5433	34771.94	3.5270	3.5270	-1.7221	26.17	0.44	-1.500			
0.5485	35102.93	3.5240	3.5240	-1.7309	26.18	0.45	-1.500			
0.5537	35435.55	3.5210	3.5210	-1.7323	26.18	0.45	-1.500			
0.5589	35768.34	3.5180	3.5180	-1.7421	26.19	0.46	-1.500			
0.5641	36105.17	3.5150	3.5150	-1.7491	26.20	0.47	-1.500			
0.5694	36441.24	3.5120	3.5120	-1.7523	26.21	0.48	-1.500			
0.5746	36776.85	3.5090	3.5089	-1.7611	26.22	0.49	-1.500			
0.5799	37116.56	3.5060	3.5060	-1.7688	26.23	0.50	-1.500			
0.5853	37460.36	3.5030	3.5029	-1.7724	26.23	0.50	-1.500			
0.5907	37803.11	3.5000	3.5001	-1.7634	26.24	0.51	-1.500			
0.5960	38141.02	3.4970	3.4970	-1.7560	26.25	0.52	-1.500			
0.6012	38474.60	3.4940	3.4942	-1.7458	26.26	0.53	-1.500			
0.6063	38806.03	3.4910	3.4909	-1.7294	26.27	0.54	-1.500			
0.6116	39139.59	3.4880	3.4880	-1.7313	26.29	0.56	-1.500			
0.6167	39469.83	3.4850	3.4851	-1.7228	26.30	0.57	-1.500			
0.6220	39804.98	3.4820	3.4819	-1.7249	26.32	0.59	-1.500			
0.6271	40136.04	3.4790	3.4790	-1.7128	26.33	0.60	-1.500			
0.6322	40462.93	3.4760	3.4759	-1.6972	26.35	0.62	-1.500			
0.6373	40786.78	3.4730	3.4731	-1.6868	26.36	0.63	-1.500			
0.6424	41112.71	3.4700	3.4700	-1.6658	26.38	0.65	-1.500			
0.6474	41432.58	3.4670	3.4669	-1.6477	26.39	0.66	-1.500			
0.6523	41745.98	3.4640	3.4641	-1.6196	26.40	0.67	-1.500			
0.6571	42054.68	3.4610	3.4610	-1.5963	26.42	0.69	-1.500			
0.6618	42356.25	3.4580	3.4580	-1.5752	26.43	0.70	-1.500			
0.6665	42655.83	3.4550	3.4549	-1.5499	26.44	0.71	-1.500			
0.6711	42951.41	3.4520	3.4520	-1.5299	26.46	0.73	-1.500			
0.6757	43244.41	3.4490	3.4490	-1.5119	26.47	0.74	-1.500			
0.6802	43534.11	3.4460	3.4460	-1.4906	26.49	0.76	-1.500			
0.6847	43818.62	3.4430	3.4430	-1.4704	26.51	0.78	-1.500			
0.6890	44098.13	3.4400	3.4400	-1.4598	26.52	0.79	-1.500			
0.6934	44379.02	3.4370	3.4370	-1.4342	26.54	0.81	-1.500			
0.6977	44654.00	3.4340	3.4339	-1.4160	26.56	0.83	-1.500			
0.7019	44923.10	3.4310	3.4312	-1.3939	26.56	0.83	-1.500			
0.7061	45188.33	3.4280	3.4279	-1.3757	26.59	0.86	-1.500			
0.7101	45449.13	3.4250	3.4249	-1.3637	26.61	0.88	-1.500			
0.7141	45705.40	3.4220	3.4220	-1.3443	26.63	0.90	-1.500			
0.7182	45967.93	3.4190	3.4190	-1.3420	26.65	0.92	-1.500			
0.7223	46224.94	3.4160	3.4161	-1.3247	26.67	0.94	-1.500			
0.7262	46478.29	3.4130	3.4131	-1.3031	26.68	0.95	-1.500			
0.7301	46727.14	3.4100	3.4099	-1.2789	26.70	0.97	-1.500			
0.7339	46970.91	3.4070	3.4071	-1.2488	26.72	0.99	-1.500			
0.7376	47207.75	3.4040	3.4040	-1.2193	26.74	1.01	-1.500			
0.7413	47441.75	3.4010	3.4011	-1.1876	26.76	1.03	-1.500			
0.7448	47665.84	3.3980	3.3980	-1.1497	26.78	1.05	-1.500			
0.7482	47882.57	3.3950	3.3950	-1.1134	26.80	1.07	-1.500			
0.7514	48092.41	3.3920	3.3919	-1.0786	26.81	1.08	-1.500			
0.7546	48294.97	3.3890	3.3890	-1.0432	26.83	1.10	-1.500			
0.7577	48492.39	3.3860	3.3860	-1.0086	26.84	1.11	-1.500			
0.7607	48682.65	3.3830	3.3830	-0.9786	26.86	1.13	-1.500			
0.7636	48868.55	3.3800	3.3800	-0.9388	26.88	1.15	-1.500			
0.7663	49046.10	3.3770	3.3770	-0.9033	26.89	1.16	-1.500			
0.7690	49215.33	3.3740	3.3740	-0.8692	26.90	1.17	-1.500			
0.7715	49378.32	3.3710	3.3709	-0.8359	26.92	1.19	-1.500			
0.7740	49535.32	3.3680	3.3679	-0.8011	26.93	1.20	-1.500			
0.7763	49684.70	3.3650	3.3651	-0.7750	26.94	1.21	-1.500			
0.7786	49829.20	3.3620	3.3621	-0.7490	26.95	1.22	-1.500			
0.7808	49972.11	3.3590	3.3589	-0.7299	26.96	1.23	-1.500			
0.7830	50108.98	3.3560	3.3560	-0.7053	26.97	1.24	-1.500			
0.7850	50242.27	3.3530	3.3530	-0.6845	26.99	1.26	-1.500			
0.7871	50371.95	3.3500	3.3500	-0.6645	27.00	1.27	-1.500			
0.7890	50498.14	3.3470	3.3470	-0.6444	27.01	1.28	-1.500			
0.7909	50618.34	3.3440	3.3440	-0.6219	27.01	1.28	-1.500			
0.7927	50735.70	3.3410	3.3410	-0.6030	27.02	1.29	-1.500			
0.7945	50849.72	3.3380	3.3379	-0.5862	27.03	1.30	-1.500			
0.7963	50960.91	3.3350	3.3350	-0.5679	27.04	1.31	-1.500			
0.7979	51067.17	3.3320	3.3320	-0.5535	27.05	1.32	-1.500			
0.7996	51172.21	3.3290	3.3290	-0.5367	27.05	1.32	-1.500			
0.8012	51273.99	3.3260	3.3259	-0.5218	27.06	1.33	-1.500			
0.8027	51371.77	3.3230	3.3230	-0.5065	27.07	1.34	-1.500			
0.8042	51467.60	3.3200	3.3201	-0.4922	27.08	1.35	-1.500			
0.8056	51560.58	3.3170	3.3170	-0.4789	27.09	1.36	-1.500			
0.8071	51651.38	3.3140	3.3139	-0.4668	27.10	1.37	-1.500			
0.8084	51739.18	3.3110	3.3109	-0.4523	27.11	1.38	-1.500			
0.8098	51825.79	3.3080	3.3080	-0.4424	27.11	1.38	-1.500			
0.8111	51909.09	3.3050	3.3051	-0.4283	27.12	1.39	-1.500			
0.8123	51989.61	3.3020	3.3020	-0.4167	27.13	1.40	-1.500			
0.8136	52068.73	3.2990	3.2990	-0.4061	27.14	1.41	-1.500			
0.8148	52144.40	3.2960	3.2960	-0.3945	27.14	1.41	-1.500			
0.8159	52218.79	3.2930	3.2930	-0.3883	27.15	1.42	-1.500			
0.8171	52292.99	3.2900	3.2901	-0.3822	27.16	1.43	-1.500			
0.8182	52366.42	3.2870	3.2869	-0.3721	27.17	1.44	-1.500			
0.8193	52437.83	3.2840	3.2841	-0.3640	27.17	1.44	-1.500			
0.8204	52506.82	3.2810	3.2811	-0.3546	27.18	1.45	-1.500			
0.8215	52573.57	3.2780	3.2780	-0.3447	27.18	1.45	-1.500			
0.8225	52638.34	3.2750	3.2749	-0.3364	27.19	1.46	-1.500			
0.8235	52701.92	3.2720	3.2721	-0.3269	27.20	1.47	-1.500			
0.8244	52764.05	3.2690	3.2689	-0.3204	27.20	1.47	-1.500			
0.8254	52825.03	3.2660	3.2661	-0.3154	27.21	1.48	-1.500			
0.8263	52884.49	3.2630	3.2631	-0.3086	27.21	1.48	-1.500			
0.8272	52943.16	3.2600	3.2599	-0.3020	27.22	1.49	-1.500			
0.8281	53000.65	3.2570	3.2570	-0.2961	27.23	1.50	-1.500			
0.8290	53056.86	3.2540	3.2540	-0.2908	27.23	1.50	-1.500			
0.8299	53112.73	3.2510	3.2509	-0.2857	27.24	1.51	-1.500			
0.8307	53166.92	3.2480	3.2480	-0.2785	27.24	1.51	-1.500			
0.8316	53219.45	3.2450	3.2450	-0.2732	27.25	1.52	-1.500			
0.8324	53271.50	3.2420	3.2421	-0.2685	27.26	1.53	-1.500			
0.8332	53322.71	3.2390	3.2390	-0.2642	27.26	1.53	-1.500			
0.8339	53372.69	3.2360	3.2359	-0.2584	27.27	1.54	-1.500			
0.8347	53421.55	3.2330	3.2331	-0.2546	27.27	1.54	-1.500			
0.8355	53470.01	3.2300	3.2299	-0.2515	27.28	1.55	-1.500			
0.8362	53517.97	3.2270	3.2270	-0.2477	27.28	1.55	-1.500			
0.8370	53564.87	3.2240	3.2239	-0.2433	27.29	1.56	-1.500			
0.8377	53611.70	3.2210	3.2210	-0.2395	27.30	1.57	-1.500			
0.8384	53657.12	3.2180	3.2181	-0.2357	27.30	1.57	-1.500			
0.8391	53701.98	3.2150	3.2150	-0.2323	27.31	1.58	-1.500			
0.8398	53746.33	3.2120	3.2121	-0.2287	27.31	1.58	-1.500			
0.8405	53789.12	3.2090	3.2090	-0.2260	27.32	1.59	-1.500			
0.8411	53832.51	3.2060	3.2060	-0.2225	27.32	1.59	-1.500			
0.8418	53875.08	3.2030	3.2030	-0.2203	27.33	1.60	-1.500			
0.8425	53917.12	3.2000	3.2000	-0.2176	27.33	1.60	-1.500			
0.8431	53958.89	3.1970	3.1971	-0.2156	27.34	1.61	-1.500			
0.8437	53999.77	3.1940	3.1939	-0.2127	27.35	1.62	-1.500			
0.8444	54040.50	3.1910	3.1910	-0.2096	27.35	1.62	-1.500			
0.8450	54080.48	3.1880	3.1879	-0.2068	27.36	1.63	-1.500			
0.8456	54119.77	3.1850	3.1850	-0.2035	27.36	1.63	-1.500			
0.8462	54158.94	3.1820	3.1821	-0.2021	27.37	1.64	-1.500			
0.8468	54196.75	3.1790	3.1789	-0.1992	27.37	1.64	-1.500			
0.8474	54234.86	3.1760	3.1761	-0.1977	27.38	1.65	-1.500			
0.8480	54272.37	3.1730	3.1730	-0.1957	27.38	1.65	-1.500			
0.8486	54309.91	3.1700	3.1699	-0.1940	27.39	1.66	-1.500			
0.8492	54347.58	3.1670	3.1671	-0.1928	27.39	1.66	-1.500			
0.8498	54384.34	3.1640	3.1640	-0.1901	27.40	1.67	-1.500			
0.8503	54420.85	3.1610	3.1610	-0.1879	27.40	1.67	-1.500			
0.8509	54456.43	3.1580	3.1580	-0.1853	27.41	1.68	-1.500			
0.8514	54491.42	3.1550	3.1549	-0.1822	27.41	1.68	-1.500			
0.8520	54526.07	3.1520	3.1520	-0.1816	27.42	1.69	-1.500			
0.8525	54560.98	3.1490	3.1490	-0.1794	27.43	1.70	-1.500			
0.8530	54595.02	3.1460	3.1460	-0.1782	27.43	1.70	-1.500			
0.8536	54629.15	3.1430	3.1430	-0.1773	27.44	1.71	-1.500			
0.8541	54663.27	3.1400	3.1401	-0.1760	27.44	1.71	-1.500			
0.8546	54696.90	3.1370	3.1369	-0.1748	27.45	1.72	-1.500			
0.8552	54730.35	3.1340	3.1340	-0.1732	27.46	1.73	-1.500			
0.8557	54763.47	3.1310	3.1310	-0.1718	27.46	1.73	-1.500			
0.8562	54796.27	3.1280	3.1279	-0.1698	27.47	1.74	-1.500			
0.8567	54829.00	3.1250	3.1251	-0.1693	27.47	1.74	-1.500			
0.8572	54861.13	3.1220	3.1220	-0.1666	27.48	1.75	-1.500			
0.8577	54892.97	3.1190	3.1190	-0.1651	27.48	1.75	-1.500			
0.8582	54924.54	3.1160	3.1160	-0.1643	27.49	1.76	-1.500			
0.8587	54955.84	3.1130	3.1131	-0.1629	27.49	1.76	-1.500			
0.8592	54987.17	3.1100	3.1100	-0.1617	27.50	1.77	-1.500			
0.8597	55018.07	3.1070	3.1070	-0.1603	27.50	1.77	-1.500			
0.8601	55048.70	3.1040	3.1040	-0.1599	27.51	1.78	-1.500			
0.8606	55079.20	3.1010	3.1010	-0.1582	27.52	1.79	-1.500			
0.8611	55109.53	3.0980	3.0980	-0.1579	27.52	1.79	-1.500			
0.8616	55139.74	3.0950	3.0949	-0.1569	27.53	1.80	-1.500			
0.8620	55169.74	3.0920	3.0921	-0.1545	27.53	1.80	-1.500			
0.8625	55199.28	3.0890	3.0889	-0.1541	27.54	1.81	-1.500			
0.8629	55228.71	3.0860	3.0860	-0.1531	27.55	1.82	-1.500			
0.8634	55258.00	3.0830	3.0831	-0.1520	27.55	1.82	-1.500			
0.8639	55286.80	3.0800	3.0798	-0.1511	27.56	1.83	-1.500			
0.8643	55316.04	3.0770	3.0770	-0.1500	27.56	1.83	-1.500			
0.8648	55344.60	3.0740	3.0741	-0.1486	27.57	1.84	-1.500			
0.8652	55373.04	3.0710	3.0711	-0.1477	27.57	1.84	-1.500			
0.8656	55401.57	3.0680	3.0680	-0.1477	27.58	1.85	-1.500			
0.8661	55429.44	3.0650	3.0649	-0.1464	27.58	1.85	-1.500			
0.8665	55457.75	3.0620	3.0620	-0.1454	27.59	1.86	-1.500			
0.8670	55485.57	3.0590	3.0589	-0.1444	27.60	1.87	-1.500			
0.8674	55513.25	3.0560	3.0561	-0.1438	27.60	1.87	-1.500			
0.8678	55541.02	3.0530	3.0530	-0.1431	27.61	1.88	-1.500			
0.8683	55568.30	3.0500	3.0499	-0.1417	27.61	1.88	-1.500			
0.8687	55595.38	3.0470	3.0470	-0.1404	27.62	1.89	-1.500			
0.8691	55621.93	3.0440	3.0440	-0.1395	27.62	1.89	-1.500			
0.8695	55648.76	3.0410	3.0410	-0.1386	27.63	1.90	-1.500			
0.8699	55675.31	3.0380	3.0380	-0.1384	27.63	1.90	-1.500			
0.8703	55701.81	3.0350	3.0349	-0.1376	27.64	1.91	-1.500			
0.8707	55727.96	3.0320	3.0321	-0.1365	27.64	1.91	-1.500			
0.8712	55754.17	3.0290	3.0289	-0.1359	27.65	1.92	-1.500			
0.8716	55780.32	3.0260	3.0261	-0.1353	27.65	1.92	-1.500			
0.8720	55806.21	3.0230	3.0230	-0.1343	27.66	1.93	-1.500			
0.8724	55831.79	3.0200	3.0200	-0.1338	27.66	1.93	-1.500			
0.8728	55857.71	3.0170	3.0172	-0.1328	27.67	1.94	-1.500			
0.8732	55882.74	3.0140	3.0139	-0.1318	27.67	1.94	-1.500			
0.8736	55908.00	3.0110	3.0109	-0.1313	27.68	1.95	-1.500			
0.8740	55933.17	3.0080	3.0081	-0.1309	27.68	1.95	-1.500			
0.8743	55958.16	3.0050	3.0050	-0.1308	27.69	1.96	-1.500			
0.8747	55983.29	3.0020	3.0019	-0.1319	27.69	1.96	-1.500			
