Ah_balance (normalized)	Ah_balance (mAh)	Voltage - fit (V)	Voltage -  interpolate (V)	dQ/dV (1/V)	Temperature (°C)	Temperature - diff (°C)	Current (C)	R_DC 0ms (mOhm)	R_DC 50ms (mOhm)	R_DC 50 ms PEC (mOhm)
-0.0069	-439.94	4.1990	4.1989	0.8237	25.36	0.14	0.050			
-0.0060	-387.05	4.1980	4.1981	0.8311	25.37	0.15	0.050			
-0.0052	-333.67	4.1970	4.1969	0.8358	25.37	0.15	0.050	0.322	0.415	
-0.0044	-279.92	4.1960	4.1961	0.8400	25.38	0.16	0.050			
-0.0035	-226.03	4.1950	4.1949	0.8430	25.38	0.16	0.050			
-0.0027	-171.60	4.1940	4.1939	0.8462	25.38	0.16	0.050			
-0.0018	-117.43	4.1930	4.1930	0.8482	25.38	0.16	0.050			
-0.0010	-62.48	4.1920	4.1919	0.8499	25.39	0.17	0.050			
-0.0001	-8.02	4.1910	4.1910	0.8511	25.38	0.16	0.050			
0.0007	46.53	4.1900	4.1900	0.8521	25.37	0.15	0.050			
0.0016	101.08	4.1890	4.1889	0.8534	25.37	0.15	0.050			
0.0024	155.69	4.1880	4.1880	0.8547	25.37	0.15	0.050			
0.0033	210.60	4.1870	4.1870	0.8559	25.37	0.15	0.050			
0.0042	265.63	4.1860	4.1860	0.8560	25.36	0.14	0.050			
0.0050	321.41	4.1850	4.1851	0.8576	25.35	0.13	0.050			
0.0059	376.62	4.1840	4.1839	0.8567	25.35	0.13	0.050			
0.0067	431.11	4.1830	4.1830	0.8560	25.36	0.14	0.050			
0.0076	485.78	4.1820	4.1821	0.8563	25.34	0.12	0.050			
0.0084	540.11	4.1810	4.1809	0.8562	25.34	0.12	0.050			
0.0093	594.48	4.1800	4.1800	0.8569	25.34	0.12	0.050			
0.0101	649.33	4.1790	4.1790	0.8580	25.33	0.11	0.050			
0.0110	704.27	4.1780	4.1779	0.8588	25.31	0.09	0.050			
0.0119	758.92	4.1770	4.1771	0.8599	25.31	0.09	0.050			
0.0127	813.99	4.1760	4.1760	0.8604	25.30	0.08	0.050			
0.0136	869.17	4.1750	4.1749	0.8615	25.30	0.08	0.050			
0.0144	924.16	4.1740	4.1738	0.8630	25.29	0.07	0.050			
0.0153	979.38	4.1730	4.1731	0.8637	25.29	0.07	0.050	0.238	0.356	
0.0162	1034.85	4.1720	4.1721	0.8650	25.27	0.05	0.050			
0.0170	1090.55	4.1710	4.1709	0.8659	25.27	0.05	0.050			
0.0179	1145.78	4.1700	4.1700	0.8660	25.26	0.04	0.050			
0.0188	1201.28	4.1690	4.1690	0.8668	25.26	0.04	0.050			
0.0196	1256.78	4.1680	4.1679	0.8687	25.25	0.03	0.050			
0.0205	1312.67	4.1670	4.1670	0.8694	25.25	0.03	0.050			
0.0214	1369.15	4.1660	4.1660	0.8698	25.25	0.03	0.050			
0.0223	1425.07	4.1650	4.1649	0.8704	25.25	0.03	0.050			
0.0231	1480.99	4.1640	4.1641	0.8694	25.25	0.03	0.050			
0.0240	1536.39	4.1630	4.1630	0.8682	25.26	0.04	0.050			
0.0249	1591.94	4.1620	4.1620	0.8677	25.26	0.04	0.050			
0.0257	1647.36	4.1610	4.1609	0.8673	25.26	0.04	0.050			
0.0266	1702.53	4.1600	4.1599	0.8668	25.27	0.05	0.050			
0.0275	1758.01	4.1590	4.1589	0.8669	25.28	0.06	0.050			
0.0283	1813.95	4.1580	4.1582	0.8662	25.29	0.07	0.050			
0.0292	1869.01	4.1570	4.1570	0.8657	25.30	0.08	0.050			
0.0301	1924.35	4.1560	4.1560	0.8665	25.31	0.09	0.050			
0.0309	1979.69	4.1550	4.1550	0.8661	25.32	0.10	0.050			
0.0318	2035.20	4.1540	4.1539	0.8651	25.34	0.12	0.050			
0.0327	2090.54	4.1530	4.1530	0.8652	25.34	0.12	0.050			
0.0335	2145.88	4.1520	4.1520	0.8652	25.34	0.12	0.050			
0.0344	2201.34	4.1510	4.1509	0.8642	25.35	0.13	0.050			
0.0353	2257.12	4.1500	4.1499	0.8630	25.35	0.13	0.050	0.362	0.423	
0.0361	2312.37	4.1490	4.1491	0.8609	25.36	0.14	0.050			
0.0370	2367.32	4.1480	4.1479	0.8605	25.34	0.12	0.050			
0.0379	2422.55	4.1470	4.1469	0.8605	25.35	0.13	0.050			
0.0387	2477.89	4.1460	4.1461	0.8602	25.34	0.12	0.050			
0.0396	2532.83	4.1450	4.1450	0.8586	25.34	0.12	0.050			
0.0404	2587.42	4.1440	4.1439	0.8587	25.32	0.10	0.050			
0.0413	2642.10	4.1430	4.1431	0.8583	25.32	0.10	0.050			
0.0421	2696.68	4.1420	4.1419	0.8586	25.31	0.09	0.050			
0.0430	2751.41	4.1410	4.1410	0.8586	25.30	0.08	0.050			
0.0438	2806.27	4.1400	4.1398	0.8578	25.30	0.08	0.050			
0.0447	2860.92	4.1390	4.1389	0.8586	25.29	0.07	0.050			
0.0456	2915.74	4.1380	4.1381	0.8598	25.29	0.07	0.050			
0.0464	2970.65	4.1370	4.1370	0.8584	25.30	0.08	0.050			
0.0473	3024.84	4.1360	4.1359	0.8615	25.29	0.07	0.050			
0.0481	3079.98	4.1350	4.1349	0.8637	25.30	0.08	0.050			
0.0490	3135.33	4.1340	4.1340	0.8657	25.30	0.08	0.050			
0.0499	3190.71	4.1330	4.1331	0.8669	25.30	0.08	0.050			
0.0507	3247.06	4.1320	4.1319	0.8687	25.30	0.08	0.050			
0.0516	3302.96	4.1310	4.1311	0.8692	25.30	0.08	0.050			
0.0525	3359.07	4.1300	4.1299	0.8703	25.31	0.09	0.050			
0.0534	3415.10	4.1290	4.1289	0.8698	25.32	0.10	0.050			
0.0542	3470.86	4.1280	4.1280	0.8698	25.34	0.12	0.050			
0.0551	3526.46	4.1270	4.1270	0.8711	25.35	0.13	0.050	0.065	0.319	
0.0560	3582.14	4.1260	4.1260	0.8721	25.36	0.14	0.050			
0.0568	3638.14	4.1250	4.1250	0.8719	25.36	0.14	0.050			
0.0577	3693.81	4.1240	4.1240	0.8718	25.36	0.14	0.050			
0.0586	3749.41	4.1230	4.1231	0.8718	25.36	0.14	0.050			
0.0595	3805.42	4.1220	4.1221	0.8728	25.37	0.15	0.050			
0.0603	3861.19	4.1210	4.1209	0.8730	25.37	0.15	0.050			
0.0612	3917.21	4.1200	4.1199	0.8732	25.37	0.15	0.050			
0.0621	3973.01	4.1190	4.1190	0.8722	25.37	0.15	0.050			
0.0630	4028.81	4.1180	4.1178	0.8722	25.36	0.14	0.050			
0.0638	4084.63	4.1170	4.1171	0.8716	25.35	0.13	0.050			
0.0647	4139.87	4.1160	4.1161	0.8702	25.33	0.11	0.050			
0.0656	4195.78	4.1150	4.1149	0.8708	25.32	0.10	0.050			
0.0664	4251.71	4.1140	4.1140	0.8727	25.31	0.09	0.050			
0.0673	4307.66	4.1130	4.1130	0.8741	25.30	0.08	0.050			
0.0682	4363.63	4.1120	4.1120	0.8758	25.28	0.06	0.050			
0.0691	4419.57	4.1110	4.1109	0.8765	25.26	0.04	0.050			
0.0699	4475.59	4.1100	4.1100	0.8776	25.25	0.03	0.050			
0.0708	4531.50	4.1090	4.1090	0.8781	25.24	0.02	0.050			
0.0717	4587.85	4.1080	4.1080	0.8778	25.22	0.00	0.050			
0.0726	4643.93	4.1070	4.1069	0.8766	25.20	-0.02	0.050			
0.0734	4700.37	4.1060	4.1061	0.8775	25.18	-0.04	0.050			
0.0743	4756.75	4.1050	4.1050	0.8770	25.17	-0.05	0.050			
0.0752	4813.33	4.1040	4.1040	0.8767	25.16	-0.06	0.050			
0.0761	4869.24	4.1030	4.1031	0.8773	25.15	-0.07	0.050			
0.0770	4925.49	4.1020	4.1020	0.8780	25.14	-0.08	0.050			
0.0778	4981.73	4.1010	4.1010	0.8781	25.13	-0.09	0.050			
0.0787	5038.00	4.1000	4.1001	0.8784	25.11	-0.11	0.050			
0.0796	5094.46	4.0990	4.0991	0.8786	25.10	-0.12	0.050			
0.0805	5150.91	4.0980	4.0978	0.8787	25.10	-0.12	0.050			
0.0814	5206.74	4.0970	4.0970	0.8785	25.10	-0.12	0.050			
0.0822	5262.78	4.0960	4.0959	0.8777	25.11	-0.11	0.050			
0.0831	5318.82	4.0950	4.0949	0.8776	25.11	-0.11	0.050			
0.0840	5374.07	4.0940	4.0940	0.8783	25.12	-0.10	0.050			
0.0849	5430.42	4.0930	4.0931	0.8788	25.13	-0.09	0.050			
0.0857	5486.47	4.0920	4.0920	0.8787	25.14	-0.08	0.050			
0.0866	5542.95	4.0910	4.0910	0.8792	25.15	-0.07	0.050			
0.0875	5599.44	4.0900	4.0900	0.8795	25.15	-0.07	0.050			
0.0884	5655.88	4.0890	4.0890	0.8812	25.16	-0.06	0.050			
0.0893	5712.62	4.0880	4.0880	0.8822	25.18	-0.04	0.050			
0.0901	5769.49	4.0870	4.0869	0.8825	25.19	-0.03	0.050			
0.0910	5826.05	4.0860	4.0859	0.8820	25.21	-0.01	0.050			
0.0919	5883.03	4.0850	4.0850	0.8806	25.21	-0.01	0.050			
0.0928	5939.57	4.0840	4.0840	0.8792	25.23	0.01	0.050			
0.0937	5995.38	4.0830	4.0830	0.8801	25.24	0.02	0.050			
0.0946	6051.92	4.0820	4.0819	0.8789	25.26	0.04	0.050	0.352	0.428	
0.0954	6107.74	4.0810	4.0811	0.8796	25.27	0.05	0.050			
0.0963	6164.09	4.0800	4.0800	0.8792	25.29	0.07	0.050			
0.0972	6220.47	4.0790	4.0791	0.8786	25.29	0.07	0.050			
0.0981	6276.48	4.0780	4.0780	0.8778	25.30	0.08	0.050			
0.0989	6332.46	4.0770	4.0770	0.8770	25.32	0.10	0.050			
0.0998	6388.51	4.0760	4.0760	0.8767	25.33	0.11	0.050			
0.1007	6444.39	4.0750	4.0751	0.8770	25.34	0.12	0.050			
0.1016	6499.93	4.0740	4.0739	0.8769	25.35	0.13	0.050			
0.1024	6555.89	4.0730	4.0731	0.8789	25.35	0.13	0.050			
0.1033	6612.15	4.0720	4.0719	0.8802	25.35	0.13	0.050			
0.1042	6668.60	4.0710	4.0710	0.8803	25.36	0.14	0.050			
0.1051	6725.50	4.0700	4.0702	0.8808	25.36	0.14	0.050			
0.1060	6781.87	4.0690	4.0690	0.8802	25.36	0.14	0.050			
0.1069	6838.55	4.0680	4.0680	0.8796	25.36	0.14	0.050			
0.1077	6895.11	4.0670	4.0670	0.8802	25.36	0.14	0.050			
0.1086	6951.42	4.0660	4.0659	0.8806	25.37	0.15	0.050			
0.1095	7007.21	4.0650	4.0650	0.8833	25.37	0.15	0.050			
0.1104	7063.63	4.0640	4.0640	0.8841	25.37	0.15	0.050			
0.1112	7119.61	4.0630	4.0631	0.8831	25.37	0.15	0.050			
0.1121	7176.35	4.0620	4.0622	0.8846	25.37	0.15	0.050			
0.1130	7232.63	4.0610	4.0612	0.8859	25.37	0.15	0.050			
0.1139	7289.39	4.0600	4.0600	0.8878	25.37	0.15	0.050			
0.1148	7346.50	4.0590	4.0588	0.8899	25.37	0.15	0.050	0.241	0.293	
0.1157	7403.43	4.0580	4.0581	0.8906	25.37	0.15	0.050			
0.1166	7460.51	4.0570	4.0569	0.8915	25.37	0.15	0.050			
0.1175	7517.60	4.0560	4.0560	0.8925	25.38	0.16	0.050			
0.1183	7574.39	4.0550	4.0553	0.8942	25.39	0.17	0.050			
0.1192	7631.96	4.0540	4.0540	0.8944	25.41	0.19	0.050			
0.1202	7689.79	4.0530	4.0529	0.8944	25.41	0.19	0.050			
0.1211	7747.56	4.0520	4.0520	0.8952	25.42	0.20	0.050			
0.1220	7805.43	4.0510	4.0510	0.8979	25.42	0.20	0.050			
0.1229	7862.85	4.0500	4.0501	0.9002	25.43	0.21	0.050			
0.1238	7920.92	4.0490	4.0490	0.8990	25.42	0.20	0.050			
0.1247	7978.20	4.0480	4.0480	0.8995	25.44	0.22	0.050			
0.1256	8035.33	4.0470	4.0470	0.8979	25.43	0.21	0.050			
0.1264	8092.68	4.0460	4.0460	0.8973	25.42	0.20	0.050			
0.1273	8149.64	4.0450	4.0451	0.8962	25.43	0.21	0.050			
0.1282	8207.25	4.0440	4.0439	0.8978	25.42	0.20	0.050			
0.1291	8264.94	4.0430	4.0429	0.8978	25.41	0.19	0.050			
0.1300	8322.36	4.0420	4.0420	0.8972	25.40	0.18	0.050			
0.1309	8379.53	4.0410	4.0410	0.8985	25.39	0.17	0.050			
0.1318	8436.76	4.0400	4.0400	0.8990	25.38	0.16	0.050			
0.1327	8494.38	4.0390	4.0389	0.8997	25.37	0.15	0.050			
0.1336	8551.75	4.0380	4.0380	0.9009	25.36	0.14	0.050			
0.1345	8609.65	4.0370	4.0370	0.9021	25.35	0.13	0.050			
0.1354	8667.31	4.0360	4.0361	0.9025	25.34	0.12	0.050			
0.1363	8724.84	4.0350	4.0351	0.9034	25.32	0.10	0.050			
0.1372	8783.07	4.0340	4.0340	0.9062	25.31	0.09	0.050			
0.1381	8841.03	4.0330	4.0329	0.9070	25.30	0.08	0.050			
0.1390	8899.00	4.0320	4.0319	0.9068	25.27	0.05	0.050			
0.1399	8956.55	4.0310	4.0310	0.9073	25.25	0.03	0.050			
0.1409	9014.43	4.0300	4.0300	0.9091	25.24	0.02	0.050			
0.1418	9072.95	4.0290	4.0289	0.9104	25.21	-0.01	0.050			
0.1427	9131.78	4.0280	4.0281	0.9116	25.19	-0.03	0.050			
0.1436	9190.48	4.0270	4.0271	0.9130	25.17	-0.05	0.050			
0.1445	9249.13	4.0260	4.0260	0.9140	25.15	-0.07	0.050			
0.1454	9308.09	4.0250	4.0250	0.9139	25.15	-0.07	0.050			
0.1464	9367.01	4.0240	4.0240	0.9127	25.14	-0.08	0.050			
0.1473	9425.32	4.0230	4.0230	0.9129	25.13	-0.09	0.050			
0.1482	9483.73	4.0220	4.0219	0.9139	25.13	-0.09	0.050			
0.1491	9542.01	4.0210	4.0210	0.9127	25.13	-0.09	0.050			
0.1500	9600.52	4.0200	4.0202	0.9128	25.13	-0.09	0.050			
0.1509	9659.02	4.0190	4.0191	0.9132	25.13	-0.09	0.050			
0.1518	9716.89	4.0180	4.0180	0.9143	25.13	-0.09	0.050			
0.1527	9775.03	4.0170	4.0171	0.9156	25.14	-0.08	0.050			
0.1536	9833.11	4.0160	4.0161	0.9188	25.14	-0.08	0.050			
0.1545	9891.08	4.0150	4.0149	0.9200	25.15	-0.07	0.050			
0.1555	9949.87	4.0140	4.0140	0.9224	25.17	-0.05	0.050	0.106	0.331	
0.1564	10009.09	4.0130	4.0131	0.9235	25.18	-0.04	0.050			
0.1573	10068.47	4.0120	4.0121	0.9252	25.19	-0.03	0.050			
0.1582	10127.80	4.0110	4.0109	0.9251	25.20	-0.02	0.050			
0.1592	10187.47	4.0100	4.0098	0.9256	25.21	-0.01	0.050			
0.1601	10247.61	4.0090	4.0089	0.9273	25.22	-0.00	0.050			
0.1611	10307.40	4.0080	4.0080	0.9280	25.23	0.01	0.050			
0.1620	10367.17	4.0070	4.0071	0.9287	25.23	0.01	0.050			
0.1629	10426.93	4.0060	4.0061	0.9299	25.24	0.02	0.050			
0.1639	10486.68	4.0050	4.0051	0.9296	25.23	0.01	0.050			
0.1648	10546.76	4.0040	4.0041	0.9292	25.24	0.02	0.050			
0.1657	10605.52	4.0030	4.0029	0.9283	25.23	0.01	0.050			
0.1666	10665.13	4.0020	4.0020	0.9277	25.23	0.01	0.050			
0.1676	10724.57	4.0010	4.0009	0.9278	25.23	0.01	0.050			
0.1685	10783.67	4.0000	4.0000	0.9264	25.23	0.01	0.050			
0.1694	10842.43	3.9990	3.9990	0.9264	25.23	0.01	0.050			
0.1703	10901.01	3.9980	3.9979	0.9241	25.21	-0.01	0.050			
0.1712	10959.48	3.9970	3.9970	0.9252	25.21	-0.01	0.050			
0.1722	11017.99	3.9960	3.9962	0.9265	25.20	-0.02	0.050			
0.1731	11077.17	3.9950	3.9950	0.9284	25.19	-0.03	0.050			
0.1740	11136.84	3.9940	3.9940	0.9310	25.18	-0.04	0.050			
0.1750	11196.97	3.9930	3.9930	0.9337	25.17	-0.05	0.050			
0.1759	11257.17	3.9920	3.9920	0.9333	25.16	-0.06	0.050			
0.1768	11317.63	3.9910	3.9909	0.9315	25.17	-0.05	0.050			
0.1778	11378.03	3.9900	3.9899	0.9315	25.16	-0.06	0.050			
0.1787	11438.01	3.9890	3.9890	0.9299	25.16	-0.06	0.050			
0.1796	11497.53	3.9880	3.9879	0.9297	25.15	-0.07	0.050			
0.1806	11556.68	3.9870	3.9871	0.9296	25.16	-0.06	0.050			
0.1815	11616.43	3.9860	3.9861	0.9294	25.17	-0.05	0.050			
0.1824	11676.32	3.9850	3.9851	0.9273	25.17	-0.05	0.050			
0.1834	11735.80	3.9840	3.9842	0.9265	25.17	-0.05	0.050			
0.1843	11794.27	3.9830	3.9831	0.9256	25.17	-0.05	0.050			
0.1852	11853.51	3.9820	3.9820	0.9265	25.17	-0.05	0.050			
0.1861	11912.21	3.9810	3.9810	0.9275	25.16	-0.06	0.050			
0.1870	11971.07	3.9800	3.9799	0.9275	25.17	-0.05	0.050			
0.1880	12030.10	3.9790	3.9790	0.9269	25.17	-0.05	0.050			
0.1889	12088.94	3.9780	3.9781	0.9280	25.17	-0.05	0.050			
0.1898	12147.85	3.9770	3.9771	0.9275	25.17	-0.05	0.050			
0.1907	12206.64	3.9760	3.9760	0.9295	25.16	-0.06	0.050			
0.1917	12266.57	3.9750	3.9750	0.9309	25.15	-0.07	0.050			
0.1926	12326.37	3.9740	3.9740	0.9338	25.15	-0.07	0.050			
0.1935	12386.39	3.9730	3.9730	0.9359	25.15	-0.07	0.050			
0.1945	12446.82	3.9720	3.9720	0.9391	25.14	-0.08	0.050			
0.1954	12507.64	3.9710	3.9710	0.9407	25.13	-0.09	0.050			
0.1964	12567.84	3.9700	3.9700	0.9415	25.14	-0.08	0.050			
0.1973	12628.09	3.9690	3.9689	0.9419	25.14	-0.08	0.050			
0.1983	12688.28	3.9680	3.9681	0.9427	25.14	-0.08	0.050			
0.1992	12748.85	3.9670	3.9669	0.9432	25.15	-0.07	0.050			
0.2001	12809.50	3.9660	3.9661	0.9450	25.15	-0.07	0.050			
0.2011	12870.39	3.9650	3.9650	0.9464	25.15	-0.07	0.050			
0.2020	12931.05	3.9640	3.9640	0.9456	25.16	-0.06	0.050			
0.2030	12991.00	3.9630	3.9631	0.9448	25.17	-0.05	0.050			
0.2039	13051.56	3.9620	3.9621	0.9445	25.18	-0.04	0.050			
0.2049	13112.09	3.9610	3.9610	0.9454	25.19	-0.03	0.050			
0.2058	13172.69	3.9600	3.9600	0.9458	25.21	-0.01	0.050			
0.2068	13233.45	3.9590	3.9590	0.9471	25.21	-0.01	0.050			
0.2077	13293.83	3.9580	3.9581	0.9473	25.23	0.01	0.050			
0.2087	13354.37	3.9570	3.9571	0.9482	25.24	0.02	0.050			
0.2096	13414.96	3.9560	3.9560	0.9478	25.25	0.03	0.050			
0.2106	13475.97	3.9550	3.9550	0.9484	25.26	0.04	0.050			
0.2115	13536.50	3.9540	3.9539	0.9485	25.28	0.06	0.050			
0.2125	13596.99	3.9530	3.9530	0.9490	25.29	0.07	0.050			
0.2134	13657.84	3.9520	3.9520	0.9492	25.30	0.08	0.050			
0.2144	13718.82	3.9510	3.9510	0.9497	25.31	0.09	0.050			
0.2153	13779.49	3.9500	3.9501	0.9510	25.32	0.10	0.050			
0.2162	13839.77	3.9490	3.9491	0.9526	25.34	0.12	0.050			
0.2172	13900.55	3.9480	3.9482	0.9537	25.34	0.12	0.050			
0.2182	13961.85	3.9470	3.9471	0.9547	25.35	0.13	0.050			
0.2191	14022.71	3.9460	3.9461	0.9556	25.37	0.15	0.050			
0.2201	14084.09	3.9450	3.9449	0.9579	25.37	0.15	0.050			
0.2210	14145.71	3.9440	3.9439	0.9584	25.38	0.16	0.050			
0.2220	14207.12	3.9430	3.9430	0.9606	25.38	0.16	0.050			
0.2229	14268.49	3.9420	3.9419	0.9606	25.37	0.15	0.050			
0.2239	14330.07	3.9410	3.9410	0.9611	25.37	0.15	0.050			
0.2249	14391.28	3.9400	3.9400	0.9636	25.36	0.14	0.050			
0.2258	14452.49	3.9390	3.9391	0.9654	25.36	0.14	0.050			
0.2268	14513.91	3.9380	3.9380	0.9693	25.34	0.12	0.050			
0.2278	14576.20	3.9370	3.9371	0.9728	25.34	0.12	0.050			
0.2287	14638.80	3.9360	3.9359	0.9742	25.34	0.12	0.050			
0.2297	14701.60	3.9350	3.9350	0.9762	25.34	0.12	0.050			
0.2307	14764.41	3.9340	3.9339	0.9758	25.34	0.12	0.050			
0.2317	14827.00	3.9330	3.9331	0.9768	25.34	0.12	0.050			
0.2327	14890.14	3.9320	3.9320	0.9773	25.33	0.11	0.050			
0.2336	14952.93	3.9310	3.9308	0.9768	25.34	0.12	0.050			
0.2346	15015.32	3.9300	3.9301	0.9767	25.34	0.12	0.050	0.224	0.370	
0.2356	15077.83	3.9290	3.9291	0.9774	25.34	0.12	0.050			
0.2366	15140.61	3.9280	3.9281	0.9780	25.34	0.12	0.050			
0.2376	15203.34	3.9270	3.9270	0.9802	25.34	0.12	0.050			
0.2385	15266.58	3.9260	3.9260	0.9804	25.33	0.11	0.050			
0.2395	15329.23	3.9250	3.9250	0.9795	25.34	0.12	0.050			
0.2405	15392.09	3.9240	3.9240	0.9788	25.34	0.12	0.050			
0.2415	15454.48	3.9230	3.9230	0.9780	25.34	0.12	0.050			
0.2425	15517.12	3.9220	3.9219	0.9778	25.35	0.13	0.050			
0.2434	15579.11	3.9210	3.9209	0.9773	25.36	0.14	0.050			
0.2444	15640.92	3.9200	3.9200	0.9753	25.37	0.15	0.050			
0.2454	15703.04	3.9190	3.9191	0.9765	25.38	0.16	0.050			
0.2463	15765.37	3.9180	3.9180	0.9772	25.39	0.17	0.050			
0.2473	15828.22	3.9170	3.9171	0.9787	25.40	0.18	0.050			
0.2483	15891.43	3.9160	3.9159	0.9805	25.41	0.19	0.050			
0.2493	15954.15	3.9150	3.9151	0.9809	25.42	0.20	0.050			
0.2503	16017.35	3.9140	3.9139	0.9813	25.40	0.18	0.050			
0.2513	16080.65	3.9130	3.9131	0.9806	25.40	0.18	0.050			
0.2522	16143.43	3.9120	3.9119	0.9801	25.40	0.18	0.050			
0.2532	16206.20	3.9110	3.9110	0.9794	25.40	0.18	0.050			
0.2542	16268.48	3.9100	3.9101	0.9794	25.39	0.17	0.050			
0.2552	16331.03	3.9090	3.9090	0.9791	25.38	0.16	0.050	0.116	0.392	
0.2561	16393.51	3.9080	3.9080	0.9800	25.37	0.15	0.050			
0.2571	16456.13	3.9070	3.9070	0.9804	25.37	0.15	0.050			
0.2581	16519.04	3.9060	3.9061	0.9807	25.36	0.14	0.050			
0.2591	16581.98	3.9050	3.9050	0.9819	25.34	0.12	0.050			
0.2601	16644.65	3.9040	3.9040	0.9815	25.33	0.11	0.050			
0.2610	16707.02	3.9030	3.9030	0.9829	25.31	0.09	0.050			
0.2620	16769.62	3.9020	3.9020	0.9837	25.30	0.08	0.050			
0.2630	16831.96	3.9010	3.9009	0.9853	25.28	0.06	0.050			
0.2640	16895.17	3.9000	3.9000	0.9868	25.26	0.04	0.050			
0.2650	16958.12	3.8990	3.8990	0.9876	25.24	0.02	0.050			
0.2660	17021.56	3.8980	3.8980	0.9898	25.23	0.01	0.050			
0.2670	17085.07	3.8970	3.8971	0.9921	25.21	-0.01	0.050			
0.2680	17149.00	3.8960	3.8960	0.9930	25.20	-0.02	0.050			
0.2690	17212.83	3.8950	3.8949	0.9951	25.20	-0.02	0.050			
0.2699	17276.60	3.8940	3.8940	0.9966	25.19	-0.03	0.050			
0.2710	17340.97	3.8930	3.8930	0.9985	25.19	-0.03	0.050			
0.2720	17404.81	3.8920	3.8920	1.0000	25.19	-0.03	0.050			
0.2730	17469.05	3.8910	3.8910	0.9996	25.20	-0.02	0.050			
0.2740	17533.00	3.8900	3.8899	1.0000	25.20	-0.02	0.050			
0.2750	17596.87	3.8890	3.8890	1.0013	25.22	-0.00	0.050			
0.2760	17661.25	3.8880	3.8880	1.0023	25.23	0.01	0.050			
0.2770	17725.44	3.8870	3.8871	1.0028	25.24	0.02	0.050			
0.2780	17790.04	3.8860	3.8860	1.0036	25.25	0.03	0.050			
0.2790	17854.31	3.8850	3.8850	1.0034	25.26	0.04	0.050			
0.2800	17918.33	3.8840	3.8841	1.0041	25.27	0.05	0.050			
0.2810	17982.76	3.8830	3.8831	1.0016	25.29	0.07	0.050			
0.2820	18046.82	3.8820	3.8820	1.0017	25.29	0.07	0.050			
0.2830	18111.51	3.8810	3.8810	1.0002	25.30	0.08	0.050			
0.2840	18175.34	3.8800	3.8799	1.0008	25.31	0.09	0.050			
0.2850	18239.47	3.8790	3.8790	1.0007	25.31	0.09	0.050			
0.2860	18303.57	3.8780	3.8781	1.0000	25.31	0.09	0.050			
0.2870	18367.53	3.8770	3.8770	0.9996	25.31	0.09	0.050			
0.2880	18431.95	3.8760	3.8760	0.9977	25.30	0.08	0.050			
0.2890	18495.81	3.8750	3.8751	0.9969	25.30	0.08	0.050			
0.2900	18559.33	3.8740	3.8741	0.9947	25.29	0.07	0.050			
0.2910	18622.96	3.8730	3.8729	0.9941	25.29	0.07	0.050			
0.2920	18686.55	3.8720	3.8720	0.9933	25.28	0.06	0.050			
0.2930	18749.75	3.8710	3.8709	0.9935	25.27	0.05	0.050			
0.2940	18812.86	3.8700	3.8700	0.9921	25.27	0.05	0.050			
0.2949	18876.38	3.8690	3.8691	0.9913	25.27	0.05	0.050	-0.094	0.355	
0.2959	18939.16	3.8680	3.8679	0.9931	25.27	0.05	0.050			
0.2969	19002.77	3.8670	3.8671	0.9936	25.26	0.04	0.050			
0.2979	19066.09	3.8660	3.8660	0.9939	25.26	0.04	0.050			
0.2989	19129.77	3.8650	3.8651	0.9939	25.26	0.04	0.050			
0.2999	19193.41	3.8640	3.8639	0.9953	25.26	0.04	0.050			
0.3009	19257.53	3.8630	3.8631	0.9962	25.25	0.03	0.050			
0.3019	19321.32	3.8620	3.8620	0.9957	25.23	0.01	0.050			
0.3029	19385.40	3.8610	3.8610	0.9946	25.21	-0.01	0.050			
0.3039	19449.40	3.8600	3.8600	0.9905	25.22	0.00	0.050			
0.3049	19513.32	3.8590	3.8589	0.9888	25.22	0.00	0.050			
0.3059	19577.33	3.8580	3.8581	0.9882	25.23	0.01	0.050			
0.3069	19640.98	3.8570	3.8570	0.9854	25.23	0.01	0.050			
0.3079	19704.74	3.8560	3.8560	0.9835	25.23	0.01	0.050			
0.3089	19767.67	3.8550	3.8549	0.9792	25.23	0.01	0.050			
0.3099	19830.51	3.8540	3.8541	0.9753	25.25	0.03	0.050			
0.3108	19892.75	3.8530	3.8531	0.9708	25.26	0.04	0.050			
0.3118	19954.72	3.8520	3.8521	0.9670	25.27	0.05	0.050			
0.3128	20016.29	3.8510	3.8509	0.9617	25.27	0.05	0.050			
0.3137	20077.65	3.8500	3.8500	0.9581	25.27	0.05	0.050			
0.3147	20138.75	3.8490	3.8490	0.9533	25.26	0.04	0.050			
0.3156	20198.88	3.8480	3.8480	0.9472	25.27	0.05	0.050	0.321	0.436	
0.3166	20259.28	3.8470	3.8470	0.9447	25.28	0.06	0.050			
0.3175	20319.51	3.8460	3.8461	0.9413	25.27	0.05	0.050			
0.3184	20379.14	3.8450	3.8451	0.9381	25.28	0.06	0.050			
0.3194	20438.89	3.8440	3.8440	0.9355	25.29	0.07	0.050			
0.3203	20498.69	3.8430	3.8430	0.9329	25.29	0.07	0.050			
0.3212	20558.90	3.8420	3.8420	0.9296	25.31	0.09	0.050			
0.3222	20618.69	3.8410	3.8410	0.9257	25.32	0.10	0.050			
0.3231	20678.43	3.8400	3.8400	0.9219	25.33	0.11	0.050			
0.3240	20737.18	3.8390	3.8390	0.9172	25.35	0.13	0.050			
0.3249	20795.33	3.8380	3.8379	0.9137	25.36	0.14	0.050			
0.3258	20853.95	3.8370	3.8371	0.9108	25.36	0.14	0.050			
0.3267	20911.88	3.8360	3.8360	0.9079	25.38	0.16	0.050			
0.3277	20970.27	3.8350	3.8350	0.9042	25.38	0.16	0.050			
0.3286	21027.95	3.8340	3.8342	0.9001	25.39	0.17	0.050			
0.3295	21085.57	3.8330	3.8330	0.8957	25.38	0.16	0.050			
0.3304	21142.50	3.8320	3.8321	0.8924	25.37	0.15	0.050			
0.3312	21199.43	3.8310	3.8308	0.8896	25.38	0.16	0.050			
0.3321	21255.85	3.8300	3.8299	0.8870	25.38	0.16	0.050			
0.3330	21312.02	3.8290	3.8290	0.8851	25.37	0.15	0.050			
0.3339	21368.17	3.8280	3.8280	0.8830	25.37	0.15	0.050			
0.3348	21424.14	3.8270	3.8271	0.8793	25.38	0.16	0.050	0.241	0.290	
0.3356	21480.14	3.8260	3.8261	0.8777	25.39	0.17	0.050			
0.3365	21536.00	3.8250	3.8249	0.8760	25.39	0.17	0.050			
0.3374	21592.19	3.8240	3.8240	0.8746	25.40	0.18	0.050			
0.3383	21648.40	3.8230	3.8228	0.8739	25.41	0.19	0.050			
0.3391	21704.85	3.8220	3.8220	0.8729	25.41	0.19	0.050			
0.3400	21761.01	3.8210	3.8210	0.8708	25.42	0.20	0.050			
0.3409	21816.43	3.8200	3.8200	0.8682	25.42	0.20	0.050			
0.3417	21871.88	3.8190	3.8190	0.8660	25.42	0.20	0.050			
0.3426	21927.36	3.8180	3.8181	0.8626	25.42	0.20	0.050			
0.3435	21982.77	3.8170	3.8169	0.8601	25.44	0.22	0.050			
0.3443	22038.06	3.8160	3.8160	0.8582	25.44	0.22	0.050			
0.3452	22092.97	3.8150	3.8150	0.8559	25.44	0.22	0.050			
0.3461	22148.09	3.8140	3.8140	0.8536	25.44	0.22	0.050			
0.3469	22202.81	3.8130	3.8129	0.8495	25.43	0.21	0.050			
0.3478	22256.88	3.8120	3.8121	0.8465	25.44	0.22	0.050			
0.3486	22310.53	3.8110	3.8110	0.8431	25.42	0.20	0.050			
0.3494	22364.08	3.8100	3.8100	0.8399	25.41	0.19	0.050			
0.3503	22417.14	3.8090	3.8090	0.8385	25.39	0.17	0.050			
0.3511	22470.38	3.8080	3.8081	0.8370	25.39	0.17	0.050			
0.3519	22523.65	3.8070	3.8069	0.8364	25.38	0.16	0.050			
0.3528	22576.73	3.8060	3.8061	0.8352	25.37	0.15	0.050			
0.3536	22629.91	3.8050	3.8050	0.8349	25.37	0.15	0.050			
0.3544	22683.03	3.8040	3.8041	0.8345	25.37	0.15	0.050			
0.3553	22736.22	3.8030	3.8030	0.8347	25.36	0.14	0.050	0.346	0.374	
0.3561	22789.54	3.8020	3.8020	0.8353	25.36	0.14	0.050			
0.3569	22842.57	3.8010	3.8010	0.8362	25.36	0.14	0.050			
0.3578	22896.05	3.8000	3.7999	0.8375	25.36	0.14	0.050			
0.3586	22949.84	3.7990	3.7990	0.8376	25.35	0.13	0.050			
0.3594	23003.52	3.7980	3.7980	0.8399	25.34	0.12	0.050			
0.3603	23057.43	3.7970	3.7970	0.8413	25.33	0.11	0.050			
0.3611	23111.07	3.7960	3.7961	0.8433	25.34	0.12	0.050			
0.3620	23164.98	3.7950	3.7950	0.8454	25.32	0.10	0.050			
0.3628	23218.83	3.7940	3.7940	0.8475	25.31	0.09	0.050			
0.3636	23273.52	3.7930	3.7930	0.8500	25.31	0.09	0.050			
0.3645	23327.80	3.7920	3.7919	0.8514	25.30	0.08	0.050			
0.3653	23381.98	3.7910	3.7911	0.8549	25.30	0.08	0.050			
0.3662	23436.23	3.7900	3.7900	0.8583	25.29	0.07	0.050			
0.3670	23491.01	3.7890	3.7889	0.8603	25.29	0.07	0.050			
0.3679	23545.84	3.7880	3.7880	0.8644	25.29	0.07	0.050			
0.3688	23601.07	3.7870	3.7869	0.8687	25.29	0.07	0.050			
0.3696	23656.42	3.7860	3.7861	0.8739	25.28	0.06	0.050			
0.3705	23711.98	3.7850	3.7851	0.8805	25.29	0.07	0.050			
0.3714	23768.12	3.7840	3.7841	0.8862	25.29	0.07	0.050			
0.3723	23824.78	3.7830	3.7829	0.8915	25.29	0.07	0.050			
0.3732	23881.95	3.7820	3.7819	0.8984	25.30	0.08	0.050			
0.3741	23939.39	3.7810	3.7811	0.9048	25.30	0.08	0.050			
0.3750	23997.82	3.7800	3.7799	0.9106	25.29	0.07	0.050	0.297	0.391	
0.3759	24056.39	3.7790	3.7789	0.9170	25.29	0.07	0.050			
0.3768	24115.29	3.7780	3.7779	0.9222	25.27	0.05	0.050			
0.3777	24174.87	3.7770	3.7769	0.9286	25.27	0.05	0.050			
0.3787	24234.49	3.7760	3.7760	0.9346	25.27	0.05	0.050			
0.3796	24294.66	3.7750	3.7751	0.9409	25.27	0.05	0.050			
0.3805	24355.13	3.7740	3.7741	0.9473	25.28	0.06	0.050			
0.3815	24416.31	3.7730	3.7730	0.9518	25.28	0.06	0.050			
0.3825	24477.51	3.7720	3.7720	0.9580	25.29	0.07	0.050			
0.3834	24539.17	3.7710	3.7710	0.9630	25.28	0.06	0.050			
0.3844	24600.81	3.7700	3.7699	0.9689	25.29	0.07	0.050			
0.3854	24662.58	3.7690	3.7691	0.9751	25.29	0.07	0.050			
0.3863	24724.95	3.7680	3.7680	0.9809	25.29	0.07	0.050			
0.3873	24787.35	3.7670	3.7671	0.9876	25.29	0.07	0.050			
0.3883	24850.41	3.7660	3.7660	0.9932	25.29	0.07	0.050			
0.3893	24913.97	3.7650	3.7650	1.0000	25.29	0.07	0.050			
0.3903	24978.20	3.7640	3.7641	1.0073	25.29	0.07	0.050			
0.3913	25042.60	3.7630	3.7629	1.0158	25.28	0.06	0.050			
0.3923	25107.17	3.7620	3.7620	1.0243	25.28	0.06	0.050			
0.3933	25173.15	3.7610	3.7609	1.0319	25.27	0.05	0.050			
0.3944	25239.54	3.7600	3.7600	1.0412	25.28	0.06	0.050			
0.3954	25306.13	3.7590	3.7590	1.0498	25.28	0.06	0.050	0.106	0.415	
0.3965	25373.24	3.7580	3.7581	1.0597	25.27	0.05	0.050			
0.3975	25441.04	3.7570	3.7570	1.0694	25.28	0.06	0.050			
0.3986	25509.73	3.7560	3.7560	1.0789	25.28	0.06	0.050			
0.3997	25578.87	3.7550	3.7550	1.0897	25.29	0.07	0.050			
0.4008	25648.87	3.7540	3.7540	1.0997	25.30	0.08	0.050			
0.4019	25720.14	3.7530	3.7529	1.1098	25.31	0.09	0.050			
0.4030	25791.13	3.7520	3.7521	1.1190	25.34	0.12	0.050			
0.4041	25863.20	3.7510	3.7509	1.1289	25.35	0.13	0.050			
0.4052	25935.53	3.7500	3.7499	1.1389	25.36	0.14	0.050			
0.4064	26008.54	3.7490	3.7490	1.1495	25.36	0.14	0.050			
0.4075	26082.35	3.7480	3.7480	1.1613	25.37	0.15	0.050			
0.4087	26157.26	3.7470	3.7470	1.1716	25.38	0.16	0.050			
0.4099	26232.81	3.7460	3.7461	1.1826	25.38	0.16	0.050			
0.4111	26308.76	3.7450	3.7451	1.1931	25.39	0.17	0.050			
0.4123	26384.85	3.7440	3.7441	1.2051	25.38	0.16	0.050			
0.4135	26461.91	3.7430	3.7430	1.2159	25.36	0.14	0.050			
0.4147	26540.13	3.7420	3.7421	1.2271	25.37	0.15	0.050	0.382	0.409	
0.4159	26619.34	3.7410	3.7410	1.2386	25.34	0.12	0.050			
0.4172	26698.62	3.7400	3.7400	1.2503	25.33	0.11	0.050			
0.4184	26779.05	3.7390	3.7390	1.2607	25.31	0.09	0.050			
0.4197	26860.08	3.7380	3.7380	1.2719	25.30	0.08	0.050			
0.4210	26942.21	3.7370	3.7369	1.2833	25.29	0.07	0.050			
0.4223	27024.48	3.7360	3.7360	1.2960	25.27	0.05	0.050			
0.4236	27108.08	3.7350	3.7350	1.3071	25.25	0.03	0.050			
0.4249	27191.82	3.7340	3.7341	1.3203	25.25	0.03	0.050			
0.4262	27277.16	3.7330	3.7330	1.3321	25.23	0.01	0.050			
0.4275	27362.61	3.7320	3.7320	1.3432	25.24	0.02	0.050			
0.4289	27448.92	3.7310	3.7309	1.3548	25.24	0.02	0.050			
0.4303	27536.05	3.7300	3.7300	1.3651	25.23	0.01	0.050			
0.4316	27623.91	3.7290	3.7289	1.3759	25.23	0.01	0.050			
0.4330	27712.70	3.7280	3.7279	1.3862	25.24	0.02	0.050			
0.4344	27801.54	3.7270	3.7270	1.3996	25.26	0.04	0.050			
0.4358	27890.40	3.7260	3.7261	1.4138	25.27	0.05	0.050			
0.4372	27980.87	3.7250	3.7250	1.4260	25.28	0.06	0.050			
0.4386	28072.35	3.7240	3.7241	1.4381	25.29	0.07	0.050			
0.4401	28164.75	3.7230	3.7230	1.4519	25.29	0.07	0.050			
0.4415	28257.82	3.7220	3.7220	1.4664	25.28	0.06	0.050			
0.4430	28351.06	3.7210	3.7210	1.4828	25.28	0.06	0.050			
0.4445	28446.05	3.7200	3.7200	1.4973	25.27	0.05	0.050			
0.4460	28542.42	3.7190	3.7190	1.5132	25.28	0.06	0.050			
0.4475	28639.48	3.7180	3.7179	1.5287	25.28	0.06	0.050			
0.4490	28737.75	3.7170	3.7171	1.5435	25.30	0.08	0.050			
0.4506	28836.79	3.7160	3.7161	1.5583	25.30	0.08	0.050			
0.4521	28937.20	3.7150	3.7150	1.5754	25.31	0.09	0.050			
0.4537	29038.75	3.7140	3.7139	1.5917	25.31	0.09	0.050			
0.4553	29141.61	3.7130	3.7130	1.6081	25.32	0.10	0.050			
0.4570	29245.24	3.7120	3.7120	1.6233	25.33	0.11	0.050			
0.4586	29350.68	3.7110	3.7111	1.6376	25.34	0.12	0.050			
0.4603	29457.03	3.7100	3.7100	1.6503	25.36	0.14	0.050			
0.4619	29563.28	3.7090	3.7089	1.6632	25.37	0.15	0.050			
0.4636	29669.74	3.7080	3.7080	1.6766	25.39	0.17	0.050			
0.4653	29776.85	3.7070	3.7070	1.6887	25.42	0.20	0.050			
0.4670	29884.89	3.7060	3.7060	1.7065	25.44	0.22	0.050			
0.4687	29994.10	3.7050	3.7051	1.7244	25.46	0.24	0.050			
0.4704	30104.26	3.7040	3.7041	1.7398	25.47	0.25	0.050			
0.4721	30214.31	3.7030	3.7030	1.7574	25.47	0.25	0.050			
0.4738	30326.25	3.7020	3.7021	1.7762	25.47	0.25	0.050			
0.4756	30439.63	3.7010	3.7009	1.7951	25.45	0.23	0.050	0.278	0.415	
0.4774	30555.27	3.7000	3.6999	1.8162	25.43	0.21	0.050			
0.4792	30671.31	3.6990	3.6990	1.8373	25.42	0.20	0.050			
0.4811	30789.79	3.6980	3.6980	1.8572	25.39	0.17	0.050			
0.4829	30908.25	3.6970	3.6969	1.8812	25.38	0.16	0.050			
0.4848	31029.06	3.6960	3.6961	1.9046	25.36	0.14	0.050			
0.4867	31151.72	3.6950	3.6951	1.9277	25.33	0.11	0.050			
0.4887	31275.77	3.6940	3.6940	1.9539	25.32	0.10	0.050			
0.4907	31401.74	3.6930	3.6931	1.9784	25.32	0.10	0.050			
0.4927	31530.15	3.6920	3.6920	2.0035	25.33	0.11	0.050			
0.4947	31660.05	3.6910	3.6909	2.0267	25.34	0.12	0.050			
0.4967	31790.86	3.6900	3.6900	2.0493	25.34	0.12	0.050			
0.4988	31922.14	3.6890	3.6891	2.0719	25.34	0.12	0.050			
0.5008	32054.08	3.6880	3.6879	2.0977	25.32	0.10	0.050			
0.5029	32187.14	3.6870	3.6870	2.1289	25.31	0.09	0.050			
0.5050	32322.34	3.6860	3.6860	2.1581	25.29	0.07	0.050			
0.5072	32460.28	3.6850	3.6851	2.1890	25.28	0.06	0.050			
0.5094	32600.67	3.6840	3.6841	2.2199	25.26	0.04	0.050			
0.5116	32743.79	3.6830	3.6830	2.2488	25.24	0.02	0.050			
0.5139	32889.14	3.6820	3.6820	2.2796	25.20	-0.02	0.050			
0.5162	33037.19	3.6810	3.6809	2.3073	25.17	-0.05	0.050			
0.5185	33186.93	3.6800	3.6799	2.3346	25.15	-0.07	0.050			
0.5209	33338.13	3.6790	3.6789	2.3631	25.16	-0.06	0.050			
0.5233	33490.26	3.6780	3.6779	2.3905	25.19	-0.03	0.050			
0.5257	33644.23	3.6770	3.6770	2.4195	25.21	-0.01	0.050			
0.5281	33800.59	3.6760	3.6760	2.4487	25.24	0.02	0.050			
0.5306	33958.49	3.6750	3.6750	2.4794	25.26	0.04	0.050			
0.5331	34118.40	3.6740	3.6740	2.5087	25.26	0.04	0.050			
0.5356	34280.64	3.6730	3.6730	2.5377	25.27	0.05	0.050	0.317	0.429	
0.5382	34444.30	3.6720	3.6720	2.5657	25.28	0.06	0.050			
0.5408	34608.87	3.6710	3.6709	2.5906	25.29	0.07	0.050			
0.5433	34774.40	3.6700	3.6699	2.6167	25.31	0.09	0.050			
0.5459	34940.46	3.6690	3.6690	2.6416	25.31	0.09	0.050			
0.5486	35108.67	3.6680	3.6680	2.6727	25.31	0.09	0.050			
0.5513	35280.78	3.6670	3.6672	2.7043	25.35	0.13	0.050			
0.5540	35454.54	3.6660	3.6660	2.7414	25.38	0.16	0.050			
0.5567	35631.85	3.6650	3.6650	2.7740	25.39	0.17	0.050			
0.5595	35810.22	3.6640	3.6639	2.8109	25.40	0.18	0.050			
0.5624	35992.00	3.6630	3.6631	2.8464	25.39	0.17	0.050			
0.5652	36174.29	3.6620	3.6619	2.8828	25.39	0.17	0.050			
0.5681	36359.17	3.6610	3.6610	2.9191	25.38	0.16	0.050			
0.5710	36545.15	3.6600	3.6600	2.9615	25.37	0.15	0.050			
0.5740	36735.91	3.6590	3.6591	2.9999	25.37	0.15	0.050			
0.5770	36929.17	3.6580	3.6579	3.0359	25.37	0.15	0.050			
0.5801	37125.21	3.6570	3.6569	3.0771	25.34	0.12	0.050			
0.5832	37323.90	3.6560	3.6559	3.1142	25.33	0.11	0.050			
0.5864	37526.42	3.6550	3.6550	3.1434	25.31	0.09	0.050			
0.5895	37730.39	3.6540	3.6540	3.1736	25.30	0.08	0.050			
0.5928	37936.16	3.6530	3.6530	3.1971	25.32	0.10	0.050			
0.5960	38144.17	3.6520	3.6520	3.2125	25.30	0.08	0.050	0.316	0.404	
0.5993	38353.74	3.6510	3.6510	3.2248	25.27	0.05	0.050			
0.6026	38563.24	3.6500	3.6500	3.2314	25.26	0.04	0.050			
0.6058	38770.45	3.6490	3.6489	3.2357	25.23	0.01	0.050			
0.6090	38978.36	3.6480	3.6479	3.2392	25.24	0.02	0.050			
0.6123	39184.52	3.6470	3.6471	3.2384	25.27	0.05	0.050			
0.6155	39390.90	3.6460	3.6461	3.2412	25.30	0.08	0.050	0.340	0.439	
0.6187	39598.30	3.6450	3.6450	3.2406	25.34	0.12	0.050			
0.6220	39806.08	3.6440	3.6439	3.2431	25.34	0.12	0.050			
0.6252	40013.18	3.6430	3.6429	3.2386	25.36	0.14	0.050			
0.6285	40222.18	3.6420	3.6421	3.2298	25.36	0.14	0.050			
0.6317	40430.50	3.6410	3.6410	3.2181	25.33	0.11	0.050			
0.6350	40638.05	3.6400	3.6401	3.2015	25.30	0.08	0.050	0.345	0.409	
0.6382	40845.73	3.6390	3.6390	3.1871	25.26	0.04	0.050			
0.6414	41051.80	3.6380	3.6379	3.1649	25.25	0.03	0.050			
0.6446	41255.07	3.6370	3.6369	3.1465	25.23	0.01	0.050			
0.6478	41456.36	3.6360	3.6361	3.1144	25.22	-0.00	0.050			
0.6509	41655.27	3.6350	3.6349	3.0752	25.21	-0.01	0.050			
0.6539	41852.79	3.6340	3.6340	3.0360	25.24	0.02	0.050			
0.6570	42046.82	3.6330	3.6329	2.9895	25.26	0.04	0.050			
0.6600	42237.95	3.6320	3.6319	2.9401	25.26	0.04	0.050			
0.6629	42426.89	3.6310	3.6309	2.8864	25.26	0.04	0.050			
0.6658	42612.42	3.6300	3.6299	2.8356	25.28	0.06	0.050			
0.6686	42792.77	3.6290	3.6291	2.7799	25.29	0.07	0.050			
0.6714	42970.65	3.6280	3.6279	2.7238	25.28	0.06	0.050			
0.6741	43143.63	3.6270	3.6270	2.6676	25.30	0.08	0.050			
0.6768	43312.63	3.6260	3.6260	2.6057	25.31	0.09	0.050	0.233	0.412	
0.6793	43477.76	3.6250	3.6250	2.5432	25.34	0.12	0.050			
0.6819	43638.76	3.6240	3.6240	2.4754	25.37	0.15	0.050			
0.6843	43795.19	3.6230	3.6230	2.4120	25.37	0.15	0.050			
0.6867	43947.45	3.6220	3.6220	2.3437	25.39	0.17	0.050			
0.6890	44094.88	3.6210	3.6210	2.2761	25.39	0.17	0.050			
0.6912	44238.28	3.6200	3.6200	2.2060	25.39	0.17	0.050			
0.6934	44377.74	3.6190	3.6189	2.1384	25.37	0.15	0.050			
0.6955	44513.82	3.6180	3.6180	2.0722	25.37	0.15	0.050	0.278	0.390	
0.6976	44644.64	3.6170	3.6170	2.0038	25.36	0.14	0.050			
0.6996	44771.40	3.6160	3.6161	1.9358	25.35	0.13	0.050			
0.7015	44893.30	3.6150	3.6151	1.8694	25.34	0.12	0.050			
0.7033	45010.47	3.6140	3.6139	1.8040	25.35	0.13	0.050			
0.7050	45123.08	3.6130	3.6130	1.7425	25.35	0.13	0.050			
0.7067	45230.28	3.6120	3.6120	1.6804	25.36	0.14	0.050			
0.7083	45333.60	3.6110	3.6111	1.6229	25.36	0.14	0.050			
0.7099	45432.05	3.6100	3.6100	1.5673	25.37	0.15	0.050			
0.7114	45527.52	3.6090	3.6090	1.5187	25.37	0.15	0.050			
0.7128	45619.15	3.6080	3.6080	1.4745	25.36	0.14	0.050			
0.7142	45706.59	3.6070	3.6070	1.4328	25.37	0.15	0.050			
0.7155	45793.48	3.6060	3.6059	1.3992	25.37	0.15	0.050	0.314	0.404	
0.7168	45876.81	3.6050	3.6049	1.3693	25.37	0.15	0.050			
0.7181	45960.98	3.6040	3.6040	1.3484	25.36	0.14	0.050			
0.7194	46042.06	3.6030	3.6030	1.3310	25.36	0.14	0.050			
0.7207	46124.00	3.6020	3.6019	1.3137	25.33	0.11	0.050			
0.7220	46205.65	3.6010	3.6009	1.3028	25.31	0.09	0.050			
0.7232	46286.77	3.6000	3.5999	1.2925	25.30	0.08	0.050			
0.7245	46368.00	3.5990	3.5990	1.2880	25.29	0.07	0.050			
0.7258	46448.72	3.5980	3.5980	1.2863	25.28	0.06	0.050			
0.7270	46529.89	3.5970	3.5971	1.2849	25.28	0.06	0.050			
0.7283	46611.84	3.5960	3.5959	1.2864	25.27	0.05	0.050			
0.7296	46693.30	3.5950	3.5950	1.2867	25.26	0.04	0.050			
0.7309	46775.02	3.5940	3.5940	1.2881	25.27	0.05	0.050			
0.7322	46857.62	3.5930	3.5932	1.2888	25.26	0.04	0.050			
0.7335	46941.10	3.5920	3.5919	1.2912	25.26	0.04	0.050			
0.7348	47024.85	3.5910	3.5910	1.2914	25.26	0.04	0.050			
0.7361	47108.43	3.5900	3.5899	1.2904	25.27	0.05	0.050	0.162	0.399	
0.7374	47192.12	3.5890	3.5890	1.2859	25.27	0.05	0.050			
0.7387	47275.51	3.5880	3.5881	1.2806	25.29	0.07	0.050			
0.7400	47358.95	3.5870	3.5871	1.2741	25.30	0.08	0.050			
0.7413	47441.54	3.5860	3.5860	1.2668	25.30	0.08	0.050			
0.7425	47523.01	3.5850	3.5850	1.2571	25.33	0.11	0.050			
0.7438	47604.55	3.5840	3.5841	1.2486	25.33	0.11	0.050			
0.7451	47685.14	3.5830	3.5831	1.2395	25.34	0.12	0.050			
0.7463	47765.00	3.5820	3.5821	1.2281	25.34	0.12	0.050			
0.7476	47843.75	3.5810	3.5811	1.2162	25.31	0.09	0.050			
0.7488	47921.23	3.5800	3.5799	1.2030	25.31	0.09	0.050			
0.7500	47996.83	3.5790	3.5790	1.1885	25.30	0.08	0.050			
0.7511	48071.87	3.5780	3.5779	1.1750	25.30	0.08	0.050			
0.7523	48146.09	3.5770	3.5770	1.1646	25.29	0.07	0.050			
0.7534	48219.38	3.5760	3.5760	1.1528	25.29	0.07	0.050			
0.7546	48292.13	3.5750	3.5749	1.1411	25.29	0.07	0.050			
0.7557	48364.15	3.5740	3.5740	1.1307	25.28	0.06	0.050	0.263	0.469	
0.7568	48435.10	3.5730	3.5731	1.1225	25.27	0.05	0.050			
0.7579	48506.03	3.5720	3.5720	1.1166	25.26	0.04	0.050			
0.7590	48577.12	3.5710	3.5710	1.1104	25.24	0.02	0.050			
0.7601	48647.82	3.5700	3.5699	1.1064	25.23	0.01	0.050			
0.7612	48717.77	3.5690	3.5690	1.1011	25.22	-0.00	0.050			
0.7623	48787.54	3.5680	3.5680	1.0962	25.20	-0.02	0.050			
0.7634	48857.04	3.5670	3.5671	1.0926	25.18	-0.04	0.050			
0.7645	48926.22	3.5660	3.5659	1.0897	25.17	-0.05	0.050			
0.7656	48995.67	3.5650	3.5649	1.0874	25.17	-0.05	0.050			
0.7666	49064.12	3.5640	3.5640	1.0846	25.16	-0.06	0.050			
0.7677	49133.08	3.5630	3.5630	1.0857	25.16	-0.06	0.050			
0.7688	49202.27	3.5620	3.5620	1.0869	25.16	-0.06	0.050			
0.7699	49271.74	3.5610	3.5610	1.0868	25.17	-0.05	0.050			
0.7710	49341.18	3.5600	3.5600	1.0876	25.19	-0.03	0.050			
0.7720	49410.64	3.5590	3.5590	1.0879	25.20	-0.02	0.050			
0.7731	49480.31	3.5580	3.5580	1.0894	25.21	-0.01	0.050			
0.7742	49550.03	3.5570	3.5570	1.0902	25.21	-0.01	0.050			
0.7753	49620.40	3.5560	3.5559	1.0916	25.23	0.01	0.050	0.320	0.404	
0.7764	49690.19	3.5550	3.5549	1.0922	25.24	0.02	0.050			
0.7775	49760.27	3.5540	3.5540	1.0930	25.26	0.04	0.050			
0.7786	49829.95	3.5530	3.5531	1.0927	25.26	0.04	0.050			
0.7797	49900.14	3.5520	3.5520	1.0938	25.28	0.06	0.050			
0.7808	49970.43	3.5510	3.5510	1.0948	25.30	0.08	0.050			
0.7819	50040.65	3.5500	3.5500	1.0956	25.31	0.09	0.050			
0.7830	50111.15	3.5490	3.5490	1.0964	25.32	0.10	0.050			
0.7841	50181.39	3.5480	3.5481	1.0968	25.32	0.10	0.050			
0.7852	50251.19	3.5470	3.5470	1.0975	25.34	0.12	0.050			
0.7863	50321.11	3.5460	3.5461	1.0987	25.35	0.13	0.050			
0.7874	50391.04	3.5450	3.5451	1.1006	25.36	0.14	0.050			
0.7884	50460.47	3.5440	3.5439	1.1023	25.36	0.14	0.050			
0.7895	50530.17	3.5430	3.5430	1.1055	25.36	0.14	0.050			
0.7906	50600.77	3.5420	3.5420	1.1108	25.37	0.15	0.050			
0.7917	50671.30	3.5410	3.5410	1.1168	25.37	0.15	0.050			
0.7928	50741.99	3.5400	3.5399	1.1225	25.37	0.15	0.050			
0.7940	50813.46	3.5390	3.5389	1.1306	25.37	0.15	0.050			
0.7951	50885.00	3.5380	3.5380	1.1389	25.37	0.15	0.050	0.184	0.372	
0.7962	50957.15	3.5370	3.5370	1.1492	25.37	0.15	0.050			
0.7973	51030.33	3.5360	3.5361	1.1594	25.36	0.14	0.050			
0.7985	51104.32	3.5350	3.5349	1.1719	25.36	0.14	0.050			
0.7997	51178.70	3.5340	3.5341	1.1849	25.36	0.14	0.050			
0.8008	51253.58	3.5330	3.5330	1.2015	25.37	0.15	0.050			
0.8020	51329.62	3.5320	3.5319	1.2193	25.37	0.15	0.050			
0.8032	51407.29	3.5310	3.5310	1.2392	25.38	0.16	0.050			
0.8045	51485.82	3.5300	3.5300	1.2601	25.37	0.15	0.050			
0.8057	51566.31	3.5290	3.5290	1.2812	25.38	0.16	0.050			
0.8070	51647.81	3.5280	3.5280	1.3040	25.37	0.15	0.050			
0.8083	51730.99	3.5270	3.5270	1.3274	25.37	0.15	0.050			
0.8096	51816.13	3.5260	3.5259	1.3538	25.37	0.15	0.050			
0.8110	51902.83	3.5250	3.5250	1.3807	25.36	0.14	0.050			
0.8124	51991.72	3.5240	3.5239	1.4072	25.36	0.14	0.050			
0.8138	52082.35	3.5230	3.5230	1.4353	25.36	0.14	0.050			
0.8152	52175.01	3.5220	3.5220	1.4637	25.36	0.14	0.050	0.197	0.511	
0.8167	52269.60	3.5210	3.5211	1.4920	25.36	0.14	0.050			
0.8182	52366.24	3.5200	3.5200	1.5210	25.36	0.14	0.050			
0.8198	52464.32	3.5190	3.5190	1.5512	25.37	0.15	0.050			
0.8213	52563.98	3.5180	3.5180	1.5829	25.37	0.15	0.050			
0.8229	52665.88	3.5170	3.5171	1.6146	25.37	0.15	0.050			
0.8245	52769.86	3.5160	3.5160	1.6475	25.36	0.14	0.050			
0.8262	52875.54	3.5150	3.5150	1.6797	25.34	0.12	0.050			
0.8279	52983.32	3.5140	3.5139	1.7125	25.33	0.11	0.050			
0.8296	53093.02	3.5130	3.5130	1.7448	25.31	0.09	0.050			
0.8313	53205.38	3.5120	3.5120	1.7791	25.31	0.09	0.050			
0.8331	53320.40	3.5110	3.5110	1.8136	25.31	0.09	0.050			
0.8350	53438.16	3.5100	3.5099	1.8455	25.31	0.09	0.050	0.375	0.469	
0.8368	53557.79	3.5090	3.5089	1.8793	25.29	0.07	0.050			
0.8387	53679.86	3.5080	3.5081	1.9099	25.27	0.05	0.050			
0.8407	53804.21	3.5070	3.5070	1.9402	25.27	0.05	0.050			
0.8427	53931.51	3.5060	3.5060	1.9670	25.27	0.05	0.050			
0.8447	54060.98	3.5050	3.5049	1.9915	25.27	0.05	0.050			
0.8467	54191.86	3.5040	3.5039	2.0108	25.27	0.05	0.050			
0.8488	54324.29	3.5030	3.5030	2.0275	25.28	0.06	0.050			
0.8509	54458.39	3.5020	3.5020	2.0387	25.27	0.05	0.050			
0.8530	54593.08	3.5010	3.5010	2.0447	25.28	0.06	0.050			
0.8551	54727.03	3.5000	3.4999	2.0432	25.28	0.06	0.050	0.271	0.510	
0.8572	54861.43	3.4990	3.4990	2.0348	25.27	0.05	0.050			
0.8593	54996.67	3.4980	3.4979	2.0240	25.26	0.04	0.050			
0.8614	55130.17	3.4970	3.4971	2.0031	25.24	0.02	0.050			
0.8635	55261.57	3.4960	3.4959	1.9784	25.23	0.01	0.050			
0.8655	55391.48	3.4950	3.4950	1.9462	25.23	0.01	0.050			
0.8675	55518.77	3.4940	3.4940	1.9076	25.26	0.04	0.050			
0.8694	55643.57	3.4930	3.4930	1.8622	25.26	0.04	0.050			
0.8713	55765.99	3.4920	3.4920	1.8097	25.27	0.05	0.050			
0.8732	55883.41	3.4910	3.4910	1.7520	25.27	0.05	0.050			
0.8750	55997.69	3.4900	3.4900	1.6887	25.26	0.04	0.050	0.228	0.428	
0.8767	56107.19	3.4890	3.4890	1.6139	25.27	0.05	0.050			
0.8783	56211.42	3.4880	3.4881	1.5410	25.26	0.04	0.050			
0.8799	56310.68	3.4870	3.4871	1.4648	25.24	0.02	0.050			
0.8813	56403.87	3.4860	3.4861	1.3849	25.21	-0.01	0.050			
0.8827	56490.99	3.4850	3.4850	1.3038	25.20	-0.02	0.050			
0.8839	56572.17	3.4840	3.4841	1.2239	25.19	-0.03	0.050			
0.8851	56647.69	3.4830	3.4831	1.1467	25.18	-0.04	0.050			
0.8862	56717.10	3.4820	3.4821	1.0724	25.17	-0.05	0.050			
0.8872	56782.31	3.4810	3.4811	0.9904	25.16	-0.06	0.050			
0.8881	56840.34	3.4800	3.4799	0.9229	25.15	-0.07	0.050			
0.8889	56891.36	3.4790	3.4789	0.8590	25.15	-0.07	0.050			
0.8897	56940.44	3.4780	3.4779	0.7876	25.15	-0.07	0.050			
0.8904	56982.63	3.4770	3.4770	0.7344	25.15	-0.07	0.050			
0.8910	57022.07	3.4760	3.4758	0.6858	25.15	-0.07	0.050			
0.8916	57060.88	3.4750	3.4748	0.6340	25.16	-0.06	0.050			
0.8921	57094.26	3.4740	3.4739	0.5956	25.16	-0.06	0.050			
0.8926	57127.74	3.4730	3.4729	0.5551	25.15	-0.07	0.050			
0.8931	57157.88	3.4720	3.4719	0.5266	25.16	-0.06	0.050			
0.8936	57187.85	3.4710	3.4709	0.5038	25.16	-0.06	0.050			
0.8940	57218.08	3.4700	3.4699	0.4786	25.16	-0.06	0.050			
0.8944	57244.00	3.4690	3.4690	0.4570	25.16	-0.06	0.050			
0.8949	57271.55	3.4680	3.4678	0.4375	25.17	-0.05	0.050			
0.8953	57296.98	3.4670	3.4670	0.4230	25.18	-0.04	0.050			
0.8957	57322.64	3.4660	3.4659	0.4075	25.19	-0.03	0.050	0.015	0.460	
0.8960	57346.78	3.4650	3.4650	0.3961	25.19	-0.03	0.050			
0.8964	57371.08	3.4640	3.4640	0.3839	25.20	-0.02	0.050			
0.8968	57394.14	3.4630	3.4629	0.3744	25.21	-0.01	0.050			
0.8971	57417.35	3.4620	3.4620	0.3646	25.22	-0.00	0.050			
0.8975	57440.00	3.4610	3.4610	0.3580	25.23	0.01	0.050			
0.8978	57462.13	3.4600	3.4600	0.3494	25.23	0.01	0.050			
0.8982	57483.30	3.4590	3.4590	0.3427	25.24	0.02	0.050			
0.8985	57505.04	3.4580	3.4580	0.3367	25.24	0.02	0.050			
0.8988	57525.66	3.4570	3.4569	0.3312	25.24	0.02	0.050			
0.8992	57546.21	3.4560	3.4560	0.3249	25.25	0.03	0.050			
0.8995	57566.68	3.4550	3.4550	0.3208	25.25	0.03	0.050			
0.8998	57586.83	3.4540	3.4540	0.3159	25.26	0.04	0.050			
0.9001	57606.92	3.4530	3.4530	0.3117	25.26	0.04	0.050			
0.9004	57626.39	3.4520	3.4520	0.3081	25.26	0.04	0.050			
0.9007	57645.70	3.4510	3.4510	0.3037	25.27	0.05	0.050			
0.9010	57664.82	3.4500	3.4500	0.3010	25.27	0.05	0.050			
0.9013	57683.77	3.4490	3.4490	0.2974	25.27	0.05	0.050			
0.9016	57702.58	3.4480	3.4480	0.2948	25.27	0.05	0.050			
0.9019	57721.21	3.4470	3.4471	0.2916	25.27	0.05	0.050			
0.9022	57739.66	3.4460	3.4460	0.2893	25.28	0.06	0.050			
0.9025	57757.87	3.4450	3.4450	0.2862	25.29	0.07	0.050			
0.9028	57776.11	3.4440	3.4440	0.2838	25.29	0.07	0.050			
0.9030	57794.13	3.4430	3.4429	0.2811	25.30	0.08	0.050			
0.9033	57812.05	3.4420	3.4420	0.2788	25.31	0.09	0.050			
0.9036	57829.67	3.4410	3.4410	0.2766	25.31	0.09	0.050			
0.9039	57847.31	3.4400	3.4400	0.2744	25.31	0.09	0.050			
0.9041	57864.77	3.4390	3.4390	0.2722	25.32	0.10	0.050			
0.9044	57881.91	3.4380	3.4380	0.2709	25.32	0.10	0.050			
0.9047	57899.00	3.4370	3.4370	0.2687	25.33	0.11	0.050			
0.9049	57916.10	3.4360	3.4360	0.2671	25.34	0.12	0.050			
0.9052	57933.10	3.4350	3.4350	0.2654	25.34	0.12	0.050			
0.9055	57950.03	3.4340	3.4340	0.2638	25.35	0.13	0.050			
0.9057	57966.74	3.4330	3.4331	0.2628	25.35	0.13	0.050			
0.9060	57983.44	3.4320	3.4319	0.2613	25.36	0.14	0.050			
0.9063	58000.20	3.4310	3.4309	0.2596	25.36	0.14	0.050			
0.9065	58016.63	3.4300	3.4299	0.2579	25.36	0.14	0.050			
0.9068	58033.09	3.4290	3.4290	0.2565	25.36	0.14	0.050			
0.9070	58049.60	3.4280	3.4280	0.2544	25.36	0.14	0.050			
0.9073	58065.83	3.4270	3.4271	0.2529	25.36	0.14	0.050			
0.9075	58081.95	3.4260	3.4260	0.2518	25.36	0.14	0.050			
0.9078	58098.02	3.4250	3.4251	0.2503	25.36	0.14	0.050			
0.9080	58113.99	3.4240	3.4239	0.2488	25.36	0.14	0.050			
0.9083	58129.89	3.4230	3.4230	0.2476	25.36	0.14	0.050			
0.9085	58145.69	3.4220	3.4221	0.2461	25.36	0.14	0.050			
0.9088	58161.59	3.4210	3.4211	0.2449	25.36	0.14	0.050			
0.9090	58177.15	3.4200	3.4201	0.2434	25.35	0.13	0.050			
0.9093	58192.68	3.4190	3.4189	0.2417	25.35	0.13	0.050			
0.9095	58207.85	3.4180	3.4180	0.2404	25.35	0.13	0.050			
0.9097	58223.19	3.4170	3.4170	0.2390	25.35	0.13	0.050			
0.9100	58238.21	3.4160	3.4159	0.2372	25.35	0.13	0.050			
0.9102	58253.44	3.4150	3.4149	0.2357	25.35	0.13	0.050			
0.9104	58268.49	3.4140	3.4140	0.2345	25.35	0.13	0.050			
0.9107	58283.43	3.4130	3.4131	0.2332	25.34	0.12	0.050			
0.9109	58298.12	3.4120	3.4120	0.2326	25.34	0.12	0.050			
0.9111	58312.78	3.4110	3.4110	0.2312	25.34	0.12	0.050			
0.9114	58327.55	3.4100	3.4101	0.2304	25.34	0.12	0.050			
0.9116	58342.28	3.4090	3.4090	0.2294	25.34	0.12	0.050			
0.9118	58357.04	3.4080	3.4080	0.2288	25.34	0.12	0.050			
0.9121	58371.67	3.4070	3.4070	0.2278	25.34	0.12	0.050			
0.9123	58386.25	3.4060	3.4060	0.2269	25.34	0.12	0.050			
0.9125	58400.74	3.4050	3.4050	0.2259	25.34	0.12	0.050			
0.9127	58415.16	3.4040	3.4040	0.2249	25.34	0.12	0.050			
0.9130	58429.26	3.4030	3.4030	0.2237	25.34	0.12	0.050			
0.9132	58443.56	3.4020	3.4019	0.2230	25.34	0.12	0.050			
0.9134	58457.80	3.4010	3.4010	0.2223	25.34	0.12	0.050			
0.9136	58472.08	3.4000	3.4000	0.2213	25.34	0.12	0.050			
0.9138	58486.22	3.3990	3.3991	0.2204	25.34	0.12	0.050			
0.9141	58500.45	3.3980	3.3980	0.2196	25.33	0.11	0.050			
0.9143	58514.47	3.3970	3.3970	0.2186	25.33	0.11	0.050			
0.9145	58528.43	3.3960	3.3960	0.2177	25.33	0.11	0.050			
0.9147	58542.26	3.3950	3.3950	0.2169	25.33	0.11	0.050			
0.9149	58556.11	3.3940	3.3940	0.2160	25.33	0.11	0.050			
0.9152	58569.91	3.3930	3.3930	0.2151	25.33	0.11	0.050			
0.9154	58583.65	3.3920	3.3921	0.2147	25.32	0.10	0.050			
0.9156	58597.36	3.3910	3.3910	0.2138	25.32	0.10	0.050	0.386	0.528	
0.9158	58611.01	3.3900	3.3899	0.2129	25.31	0.09	0.050			
0.9160	58624.55	3.3890	3.3890	0.2112	25.31	0.09	0.050			
0.9162	58638.04	3.3880	3.3880	0.2103	25.31	0.09	0.050			
0.9164	58651.58	3.3870	3.3870	0.2097	25.31	0.09	0.050			
0.9166	58664.99	3.3860	3.3860	0.2087	25.31	0.09	0.050			
0.9168	58678.32	3.3850	3.3849	0.2078	25.31	0.09	0.050			
0.9171	58691.58	3.3840	3.3840	0.2068	25.31	0.09	0.050			
0.9173	58704.85	3.3830	3.3831	0.2059	25.32	0.10	0.050			
0.9175	58717.92	3.3820	3.3820	0.2051	25.32	0.10	0.050			
0.9177	58731.02	3.3810	3.3810	0.2042	25.32	0.10	0.050			
0.9179	58744.01	3.3800	3.3801	0.2032	25.32	0.10	0.050			
0.9181	58757.03	3.3790	3.3790	0.2021	25.31	0.09	0.050			
0.9183	58770.03	3.3780	3.3781	0.2014	25.31	0.09	0.050			
0.9185	58782.89	3.3770	3.3770	0.2004	25.31	0.09	0.050			
0.9187	58795.67	3.3760	3.3759	0.1994	25.31	0.09	0.050			
0.9189	58808.42	3.3750	3.3750	0.1984	25.31	0.09	0.050			
0.9191	58821.08	3.3740	3.3741	0.1974	25.31	0.09	0.050			
0.9193	58833.63	3.3730	3.3729	0.1964	25.31	0.09	0.050			
0.9195	58846.06	3.3720	3.3719	0.1951	25.31	0.09	0.050			
0.9197	58858.52	3.3710	3.3710	0.1943	25.31	0.09	0.050			
0.9199	58870.92	3.3700	3.3700	0.1934	25.30	0.08	0.050			
0.9200	58883.08	3.3690	3.3691	0.1926	25.30	0.08	0.050			
0.9202	58895.39	3.3680	3.3681	0.1919	25.30	0.08	0.050			
0.9204	58907.65	3.3670	3.3670	0.1912	25.30	0.08	0.050			
0.9206	58919.97	3.3660	3.3659	0.1907	25.29	0.07	0.050			
0.9208	58932.15	3.3650	3.3650	0.1899	25.29	0.07	0.050			
0.9210	58944.28	3.3640	3.3640	0.1891	25.29	0.07	0.050			
0.9212	58956.27	3.3630	3.3630	0.1886	25.29	0.07	0.050			
0.9214	58968.19	3.3620	3.3619	0.1876	25.28	0.06	0.050			
0.9216	58980.17	3.3610	3.3611	0.1870	25.28	0.06	0.050			
0.9218	58992.12	3.3600	3.3599	0.1864	25.28	0.06	0.050			
0.9219	59004.10	3.3590	3.3589	0.1851	25.28	0.06	0.050			
0.9221	59015.93	3.3580	3.3580	0.1844	25.28	0.06	0.050			
0.9223	59027.71	3.3570	3.3571	0.1837	25.27	0.05	0.050			
0.9225	59039.59	3.3560	3.3560	0.1832	25.27	0.05	0.050			
0.9227	59051.27	3.3550	3.3550	0.1824	25.27	0.05	0.050			
0.9229	59062.92	3.3540	3.3540	0.1816	25.27	0.05	0.050			
0.9230	59074.61	3.3530	3.3529	0.1809	25.26	0.04	0.050			
0.9232	59086.05	3.3520	3.3520	0.1803	25.26	0.04	0.050			
0.9234	59097.56	3.3510	3.3511	0.1795	25.26	0.04	0.050			
0.9236	59109.02	3.3500	3.3501	0.1787	25.26	0.04	0.050			
0.9238	59120.45	3.3490	3.3490	0.1779	25.26	0.04	0.050			
0.9239	59131.63	3.3480	3.3480	0.1777	25.26	0.04	0.050			
0.9241	59142.98	3.3470	3.3470	0.1770	25.26	0.04	0.050			
0.9243	59154.09	3.3460	3.3459	0.1761	25.26	0.04	0.050			
0.9245	59165.54	3.3450	3.3450	0.1752	25.26	0.04	0.050			
0.9246	59176.73	3.3440	3.3439	0.1745	25.26	0.04	0.050			
0.9248	59187.89	3.3430	3.3430	0.1739	25.26	0.04	0.050			
0.9250	59199.00	3.3420	3.3420	0.1733	25.26	0.04	0.050			
0.9252	59210.16	3.3410	3.3410	0.1724	25.26	0.04	0.050			
0.9253	59221.16	3.3400	3.3399	0.1716	25.25	0.03	0.050			
0.9255	59232.11	3.3390	3.3390	0.1709	25.25	0.03	0.050			
0.9257	59243.02	3.3380	3.3380	0.1702	25.25	0.03	0.050			
0.9258	59253.85	3.3370	3.3371	0.1696	25.24	0.02	0.050			
0.9260	59264.68	3.3360	3.3361	0.1689	25.24	0.02	0.050			
0.9262	59275.70	3.3350	3.3350	0.1686	25.24	0.02	0.050			
0.9264	59286.46	3.3340	3.3341	0.1677	25.24	0.02	0.050			
0.9265	59297.12	3.3330	3.3330	0.1671	25.24	0.02	0.050			
0.9267	59307.76	3.3320	3.3320	0.1662	25.24	0.02	0.050			
0.9268	59318.38	3.3310	3.3310	0.1655	25.24	0.02	0.050			
0.9270	59328.94	3.3300	3.3300	0.1647	25.24	0.02	0.050			
0.9272	59339.43	3.3290	3.3290	0.1640	25.24	0.02	0.050			
0.9273	59349.81	3.3280	3.3280	0.1631	25.23	0.01	0.050			
0.9275	59360.22	3.3270	3.3270	0.1624	25.23	0.01	0.050			
0.9277	59370.59	3.3260	3.3259	0.1617	25.23	0.01	0.050			
0.9278	59380.80	3.3250	3.3251	0.1607	25.23	0.01	0.050			
0.9280	59391.06	3.3240	3.3241	0.1601	25.23	0.01	0.050			
0.9281	59401.29	3.3230	3.3230	0.1595	25.23	0.01	0.050			
0.9283	59411.48	3.3220	3.3220	0.1589	25.23	0.01	0.050			
0.9285	59421.89	3.3210	3.3211	0.1585	25.23	0.01	0.050			
0.9286	59432.00	3.3200	3.3200	0.1577	25.23	0.01	0.050			
0.9288	59442.07	3.3190	3.3190	0.1569	25.24	0.02	0.050			
0.9289	59452.09	3.3180	3.3180	0.1561	25.24	0.02	0.050			
0.9291	59461.98	3.3170	3.3170	0.1557	25.25	0.03	0.050			
0.9292	59471.92	3.3160	3.3160	0.1549	25.25	0.03	0.050			
0.9294	59481.81	3.3150	3.3150	0.1542	25.25	0.03	0.050			
0.9296	59491.66	3.3140	3.3140	0.1535	25.25	0.03	0.050			
0.9297	59501.31	3.3130	3.3130	0.1527	25.25	0.03	0.050			
0.9299	59511.07	3.3120	3.3121	0.1521	25.25	0.03	0.050			
0.9300	59520.78	3.3110	3.3110	0.1515	25.25	0.03	0.050			
0.9302	59530.46	3.3100	3.3100	0.1509	25.25	0.03	0.050			
0.9303	59540.06	3.3090	3.3089	0.1503	25.25	0.03	0.050			
0.9305	59549.66	3.3080	3.3080	0.1497	25.25	0.03	0.050			
0.9306	59559.22	3.3070	3.3070	0.1492	25.25	0.03	0.050			
0.9308	59568.75	3.3060	3.3060	0.1486	25.25	0.03	0.050			
0.9309	59578.20	3.3050	3.3050	0.1480	25.25	0.03	0.050			
0.9311	59587.70	3.3040	3.3040	0.1473	25.25	0.03	0.050			
0.9312	59597.11	3.3030	3.3030	0.1468	25.25	0.03	0.050			
0.9314	59606.48	3.3020	3.3020	0.1462	25.25	0.03	0.050			
0.9315	59615.82	3.3010	3.3010	0.1456	25.26	0.04	0.050			
0.9316	59625.06	3.3000	3.3000	0.1452	25.26	0.04	0.050			
0.9318	59634.33	3.2990	3.2991	0.1447	25.26	0.04	0.050			
0.9319	59643.58	3.2980	3.2980	0.1442	25.26	0.04	0.050			
0.9321	59652.83	3.2970	3.2971	0.1437	25.26	0.04	0.050			
0.9322	59662.02	3.2960	3.2961	0.1432	25.26	0.04	0.050			
0.9324	59671.20	3.2950	3.2950	0.1425	25.26	0.04	0.050			
0.9325	59680.30	3.2940	3.2939	0.1419	25.26	0.04	0.050			
0.9326	59689.31	3.2930	3.2929	0.1412	25.26	0.04	0.050			
0.9328	59698.33	3.2920	3.2919	0.1407	25.26	0.04	0.050			
0.9329	59707.31	3.2910	3.2910	0.1402	25.26	0.04	0.050			
0.9331	59716.26	3.2900	3.2900	0.1396	25.27	0.05	0.050			
0.9332	59725.20	3.2890	3.2890	0.1391	25.27	0.05	0.050			
0.9333	59734.08	3.2880	3.2880	0.1386	25.27	0.05	0.050			
0.9335	59742.93	3.2870	3.2871	0.1380	25.27	0.05	0.050			
0.9336	59751.75	3.2860	3.2861	0.1375	25.27	0.05	0.050			
0.9338	59760.39	3.2850	3.2850	0.1375	25.27	0.05	0.050			
0.9339	59769.09	3.2840	3.2840	0.1369	25.26	0.04	0.050			
0.9340	59777.85	3.2830	3.2831	0.1366	25.26	0.04	0.050			
0.9342	59786.57	3.2820	3.2820	0.1362	25.26	0.04	0.050			
0.9343	59795.34	3.2810	3.2809	0.1357	25.26	0.04	0.050			
0.9344	59803.98	3.2800	3.2799	0.1352	25.26	0.04	0.050			
0.9346	59812.62	3.2790	3.2789	0.1348	25.26	0.04	0.050			
0.9347	59821.24	3.2780	3.2780	0.1344	25.26	0.04	0.050			
0.9348	59829.90	3.2770	3.2770	0.1339	25.26	0.04	0.050			
0.9350	59838.45	3.2760	3.2760	0.1334	25.26	0.04	0.050			
0.9351	59846.92	3.2750	3.2749	0.1329	25.26	0.04	0.050			
0.9352	59855.42	3.2740	3.2739	0.1325	25.26	0.04	0.050			
0.9354	59863.88	3.2730	3.2730	0.1321	25.26	0.04	0.050			
0.9355	59872.42	3.2720	3.2721	0.1314	25.26	0.04	0.050			
0.9356	59880.95	3.2710	3.2711	0.1314	25.26	0.04	0.050	0.283	0.574	
0.9358	59889.34	3.2700	3.2700	0.1308	25.26	0.04	0.050			
0.9359	59897.69	3.2690	3.2691	0.1302	25.26	0.04	0.050			
0.9360	59906.00	3.2680	3.2680	0.1296	25.26	0.04	0.050			
0.9362	59914.29	3.2670	3.2670	0.1289	25.26	0.04	0.050			
0.9363	59922.52	3.2660	3.2659	0.1283	25.26	0.04	0.050			
0.9364	59930.82	3.2650	3.2649	0.1279	25.26	0.04	0.050			
0.9365	59938.98	3.2640	3.2640	0.1273	25.26	0.04	0.050			
0.9367	59947.11	3.2630	3.2630	0.1266	25.26	0.04	0.050			
0.9368	59955.09	3.2620	3.2620	0.1262	25.26	0.04	0.050			
0.9369	59963.00	3.2610	3.2610	0.1252	25.26	0.04	0.050			
0.9370	59971.00	3.2600	3.2600	0.1247	25.26	0.04	0.050			
0.9372	59978.97	3.2590	3.2590	0.1243	25.26	0.04	0.050			
0.9373	59986.91	3.2580	3.2580	0.1238	25.26	0.04	0.050			
0.9374	59994.85	3.2570	3.2570	0.1233	25.26	0.04	0.050			
0.9375	60002.63	3.2560	3.2560	0.1230	25.26	0.04	0.050			
0.9377	60010.49	3.2550	3.2550	0.1225	25.26	0.04	0.050			
0.9378	60018.32	3.2540	3.2540	0.1221	25.26	0.04	0.050			
0.9379	60026.12	3.2530	3.2530	0.1217	25.26	0.04	0.050			
0.9380	60033.77	3.2520	3.2520	0.1211	25.26	0.04	0.050			
0.9381	60041.57	3.2510	3.2510	0.1206	25.26	0.04	0.050			
0.9383	60049.27	3.2500	3.2500	0.1202	25.26	0.04	0.050			
0.9384	60056.95	3.2490	3.2491	0.1198	25.26	0.04	0.050			
0.9385	60064.61	3.2480	3.2481	0.1194	25.26	0.04	0.050			
0.9386	60072.23	3.2470	3.2470	0.1190	25.26	0.04	0.050			
0.9387	60079.83	3.2460	3.2460	0.1186	25.26	0.04	0.050			
0.9389	60087.44	3.2450	3.2449	0.1181	25.26	0.04	0.050			
0.9390	60094.98	3.2440	3.2440	0.1177	25.26	0.04	0.050			
0.9391	60102.50	3.2430	3.2431	0.1173	25.26	0.04	0.050			
0.9392	60110.07	3.2420	3.2420	0.1170	25.26	0.04	0.050			
0.9393	60117.54	3.2410	3.2410	0.1165	25.26	0.04	0.050			
0.9395	60124.91	3.2400	3.2399	0.1162	25.26	0.04	0.050			
0.9396	60132.34	3.2390	3.2389	0.1158	25.26	0.04	0.050			
0.9397	60139.73	3.2380	3.2380	0.1154	25.26	0.04	0.050			
0.9398	60147.10	3.2370	3.2370	0.1149	25.26	0.04	0.050			
0.9399	60154.41	3.2360	3.2360	0.1145	25.26	0.04	0.050			
0.9400	60161.79	3.2350	3.2350	0.1140	25.26	0.04	0.050			
0.9401	60169.07	3.2340	3.2340	0.1135	25.26	0.04	0.050			
0.9403	60176.32	3.2330	3.2330	0.1131	25.26	0.04	0.050			
0.9404	60183.54	3.2320	3.2320	0.1126	25.26	0.04	0.050			
0.9405	60190.72	3.2310	3.2311	0.1122	25.26	0.04	0.050			
0.9406	60197.88	3.2300	3.2301	0.1117	25.26	0.04	0.050			
0.9407	60205.00	3.2290	3.2289	0.1114	25.26	0.04	0.050			
0.9408	60212.11	3.2280	3.2279	0.1109	25.26	0.04	0.050			
0.9409	60219.20	3.2270	3.2270	0.1105	25.26	0.04	0.050			
0.9410	60226.26	3.2260	3.2260	0.1101	25.26	0.04	0.050			
0.9411	60233.33	3.2250	3.2250	0.1098	25.26	0.04	0.050			
0.9413	60240.34	3.2240	3.2240	0.1093	25.26	0.04	0.050			
0.9414	60247.32	3.2230	3.2231	0.1089	25.26	0.04	0.050			
0.9415	60254.29	3.2220	3.2221	0.1084	25.26	0.04	0.050			
0.9416	60261.21	3.2210	3.2210	0.1080	25.26	0.04	0.050			
0.9417	60268.12	3.2200	3.2199	0.1076	25.26	0.04	0.050			
0.9418	60274.99	3.2190	3.2191	0.1071	25.26	0.04	0.050			
0.9419	60281.83	3.2180	3.2180	0.1067	25.26	0.04	0.050			
0.9420	60288.65	3.2170	3.2170	0.1062	25.26	0.04	0.050			
0.9421	60295.41	3.2160	3.2160	0.1058	25.26	0.04	0.050			
0.9422	60302.12	3.2150	3.2150	0.1053	25.25	0.03	0.050			
0.9423	60308.84	3.2140	3.2141	0.1049	25.25	0.03	0.050			
0.9424	60315.54	3.2130	3.2131	0.1045	25.25	0.03	0.050			
0.9425	60322.22	3.2120	3.2120	0.1041	25.25	0.03	0.050			
0.9426	60328.79	3.2110	3.2110	0.1039	25.25	0.03	0.050			
0.9427	60335.42	3.2100	3.2101	0.1036	25.25	0.03	0.050			
0.9428	60342.03	3.2090	3.2091	0.1032	25.25	0.03	0.050			
0.9429	60348.62	3.2080	3.2080	0.1028	25.25	0.03	0.050			
0.9430	60355.20	3.2070	3.2068	0.1025	25.26	0.04	0.050			
0.9432	60361.75	3.2060	3.2060	0.1022	25.26	0.04	0.050			
0.9433	60368.27	3.2050	3.2051	0.1018	25.26	0.04	0.050			
0.9434	60374.82	3.2040	3.2040	0.1014	25.26	0.04	0.050			
0.9435	60381.29	3.2030	3.2030	0.1010	25.26	0.04	0.050			
0.9436	60387.70	3.2020	3.2021	0.1005	25.26	0.04	0.050			
0.9437	60394.12	3.2010	3.2010	0.1002	25.26	0.04	0.050			
0.9438	60400.52	3.2000	3.2000	0.0998	25.26	0.04	0.050			
0.9439	60406.90	3.1990	3.1989	0.0995	25.26	0.04	0.050			
0.9440	60413.25	3.1980	3.1980	0.0991	25.26	0.04	0.050			
0.9441	60419.62	3.1970	3.1971	0.0987	25.26	0.04	0.050			
0.9442	60426.00	3.1960	3.1961	0.0985	25.26	0.04	0.050			
0.9443	60432.29	3.1950	3.1950	0.0981	25.26	0.04	0.050			
0.9444	60438.55	3.1940	3.1940	0.0976	25.26	0.04	0.050			
0.9444	60444.79	3.1930	3.1930	0.0972	25.26	0.04	0.050			
0.9445	60451.00	3.1920	3.1920	0.0968	25.26	0.04	0.050			
0.9446	60457.19	3.1910	3.1910	0.0966	25.26	0.04	0.050			
0.9447	60463.36	3.1900	3.1900	0.0962	25.26	0.04	0.050			
0.9448	60469.50	3.1890	3.1890	0.0957	25.26	0.04	0.050			
0.9449	60475.61	3.1880	3.1879	0.0953	25.26	0.04	0.050			
0.9450	60481.70	3.1870	3.1869	0.0949	25.26	0.04	0.050			
0.9451	60487.76	3.1860	3.1860	0.0945	25.26	0.04	0.050			
0.9452	60493.80	3.1850	3.1851	0.0941	25.26	0.04	0.050			
0.9453	60499.70	3.1840	3.1840	0.0936	25.26	0.04	0.050			
0.9454	60505.67	3.1830	3.1830	0.0932	25.26	0.04	0.050			
0.9455	60511.63	3.1820	3.1820	0.0929	25.26	0.04	0.050			
0.9456	60517.56	3.1810	3.1810	0.0925	25.25	0.03	0.050			
0.9457	60523.47	3.1800	3.1800	0.0922	25.25	0.03	0.050			
0.9458	60529.36	3.1790	3.1790	0.0918	25.25	0.03	0.050			
0.9459	60535.23	3.1780	3.1780	0.0915	25.25	0.03	0.050			
0.9460	60541.09	3.1770	3.1770	0.0912	25.25	0.03	0.050			
0.9460	60546.86	3.1760	3.1760	0.0909	25.25	0.03	0.050			
0.9461	60552.67	3.1750	3.1750	0.0906	25.25	0.03	0.050			
0.9462	60558.45	3.1740	3.1740	0.0903	25.25	0.03	0.050			
0.9463	60564.22	3.1730	3.1730	0.0900	25.25	0.03	0.050			
0.9464	60569.97	3.1720	3.1720	0.0896	25.24	0.02	0.050			
0.9465	60575.65	3.1710	3.1710	0.0893	25.24	0.02	0.050			
0.9466	60581.36	3.1700	3.1700	0.0890	25.24	0.02	0.050			
0.9467	60587.04	3.1690	3.1690	0.0887	25.24	0.02	0.050			
0.9468	60592.73	3.1680	3.1679	0.0883	25.24	0.02	0.050			
0.9468	60598.37	3.1670	3.1670	0.0880	25.24	0.02	0.050			
0.9469	60604.00	3.1660	3.1661	0.0877	25.24	0.02	0.050			
0.9470	60609.60	3.1650	3.1650	0.0874	25.24	0.02	0.050			
0.9471	60615.18	3.1640	3.1640	0.0871	25.24	0.02	0.050			
0.9472	60620.75	3.1630	3.1630	0.0868	25.24	0.02	0.050			
0.9473	60626.29	3.1620	3.1621	0.0865	25.24	0.02	0.050			
0.9474	60631.84	3.1610	3.1611	0.0862	25.24	0.02	0.050			
0.9475	60637.34	3.1600	3.1601	0.0859	25.24	0.02	0.050			
0.9475	60642.83	3.1590	3.1590	0.0855	25.24	0.02	0.050			
0.9476	60648.29	3.1580	3.1581	0.0852	25.24	0.02	0.050			
0.9477	60653.74	3.1570	3.1570	0.0849	25.24	0.02	0.050			
0.9478	60659.21	3.1560	3.1560	0.0846	25.24	0.02	0.050			
0.9479	60664.61	3.1550	3.1550	0.0843	25.24	0.02	0.050			
0.9480	60670.00	3.1540	3.1541	0.0840	25.24	0.02	0.050			
0.9481	60675.37	3.1530	3.1531	0.0836	25.23	0.01	0.050			
0.9481	60680.71	3.1520	3.1521	0.0833	25.23	0.01	0.050			
0.9482	60686.03	3.1510	3.1510	0.0829	25.23	0.01	0.050			
0.9483	60691.33	3.1500	3.1500	0.0826	25.23	0.01	0.050			
0.9484	60696.60	3.1490	3.1489	0.0823	25.23	0.01	0.050			
0.9485	60701.85	3.1480	3.1479	0.0819	25.23	0.01	0.050			
0.9485	60707.07	3.1470	3.1470	0.0816	25.23	0.01	0.050			
0.9486	60712.28	3.1460	3.1461	0.0813	25.23	0.01	0.050			
0.9487	60717.47	3.1450	3.1451	0.0810	25.22	0.00	0.050			
0.9488	60722.64	3.1440	3.1440	0.0806	25.22	0.00	0.050			
0.9489	60727.79	3.1430	3.1430	0.0803	25.22	-0.00	0.050			
0.9490	60732.92	3.1420	3.1420	0.0800	25.22	-0.00	0.050			
0.9490	60738.03	3.1410	3.1410	0.0796	25.22	-0.00	0.050			
0.9491	60743.09	3.1400	3.1400	0.0793	25.21	-0.01	0.050			
0.9492	60748.15	3.1390	3.1390	0.0790	25.21	-0.01	0.050			
0.9493	60753.20	3.1380	3.1379	0.0787	25.21	-0.01	0.050			
0.9493	60758.23	3.1370	3.1370	0.0784	25.21	-0.01	0.050			
0.9494	60763.24	3.1360	3.1360	0.0781	25.21	-0.01	0.050			
0.9495	60768.23	3.1350	3.1350	0.0778	25.21	-0.01	0.050			
0.9496	60773.16	3.1340	3.1340	0.0775	25.21	-0.01	0.050			
0.9497	60778.11	3.1330	3.1330	0.0772	25.21	-0.01	0.050			
0.9497	60783.01	3.1320	3.1321	0.0769	25.21	-0.01	0.050			
0.9498	60787.92	3.1310	3.1311	0.0767	25.21	-0.01	0.050			
0.9499	60792.82	3.1300	3.1301	0.0764	25.21	-0.01	0.050			
0.9500	60797.70	3.1290	3.1290	0.0761	25.21	-0.01	0.050			
0.9500	60802.57	3.1280	3.1280	0.0758	25.21	-0.01	0.050			
0.9501	60807.38	3.1270	3.1269	0.0755	25.21	-0.01	0.050			
0.9502	60812.21	3.1260	3.1260	0.0753	25.21	-0.01	0.050			
0.9503	60817.02	3.1250	3.1250	0.0750	25.21	-0.01	0.050			
0.9503	60821.87	3.1240	3.1240	0.0746	25.21	-0.01	0.050			
0.9504	60826.64	3.1230	3.1230	0.0744	25.21	-0.01	0.050			
0.9505	60831.39	3.1220	3.1220	0.0741	25.21	-0.01	0.050			
0.9506	60836.12	3.1210	3.1210	0.0738	25.20	-0.02	0.050			
0.9506	60840.86	3.1200	3.1199	0.0736	25.20	-0.02	0.050			
0.9507	60845.56	3.1190	3.1190	0.0732	25.20	-0.02	0.050			
0.9508	60850.24	3.1180	3.1181	0.0729	25.20	-0.02	0.050			
0.9509	60854.90	3.1170	3.1171	0.0726	25.20	-0.02	0.050			
0.9509	60859.48	3.1160	3.1160	0.0724	25.20	-0.02	0.050			
0.9510	60864.11	3.1150	3.1150	0.0721	25.20	-0.02	0.050			
0.9511	60868.72	3.1140	3.1140	0.0719	25.20	-0.02	0.050			
0.9511	60873.31	3.1130	3.1130	0.0716	25.20	-0.02	0.050			
0.9512	60877.88	3.1120	3.1121	0.0713	25.20	-0.02	0.050			
0.9513	60882.43	3.1110	3.1110	0.0710	25.20	-0.02	0.050			
0.9514	60886.97	3.1100	3.1100	0.0707	25.20	-0.02	0.050			
0.9514	60891.49	3.1090	3.1090	0.0705	25.20	-0.02	0.050			
0.9515	60896.02	3.1080	3.1080	0.0701	25.20	-0.02	0.050			
0.9516	60900.50	3.1070	3.1070	0.0698	25.20	-0.02	0.050			
0.9516	60904.96	3.1060	3.1060	0.0695	25.20	-0.02	0.050			
0.9517	60909.40	3.1050	3.1050	0.0692	25.20	-0.02	0.050			
0.9518	60913.80	3.1040	3.1039	0.0689	25.20	-0.02	0.050			
0.9518	60918.20	3.1030	3.1030	0.0686	25.20	-0.02	0.050			
0.9519	60922.58	3.1020	3.1020	0.0683	25.20	-0.02	0.050			
0.9520	60926.95	3.1010	3.1010	0.0681	25.20	-0.02	0.050			
0.9521	60931.26	3.1000	3.1001	0.0679	25.20	-0.02	0.050			
0.9521	60935.60	3.0990	3.0991	0.0676	25.20	-0.02	0.050			
0.9522	60939.91	3.0980	3.0980	0.0673	25.20	-0.02	0.050			
0.9523	60944.21	3.0970	3.0970	0.0671	25.20	-0.02	0.050			
0.9523	60948.52	3.0960	3.0960	0.0668	25.20	-0.02	0.050			
0.9524	60952.79	3.0950	3.0950	0.0666	25.20	-0.02	0.050			
0.9525	60957.04	3.0940	3.0940	0.0663	25.20	-0.02	0.050			
0.9525	60961.27	3.0930	3.0930	0.0660	25.20	-0.02	0.050			
0.9526	60965.49	3.0920	3.0919	0.0657	25.20	-0.02	0.050			
0.9527	60969.65	3.0910	3.0910	0.0656	25.20	-0.02	0.050			
0.9527	60973.84	3.0900	3.0900	0.0653	25.20	-0.02	0.050			
0.9528	60978.01	3.0890	3.0890	0.0651	25.20	-0.02	0.050			
0.9528	60982.09	3.0880	3.0880	0.0646	25.20	-0.02	0.050			
0.9529	60986.22	3.0870	3.0870	0.0644	25.20	-0.02	0.050			
0.9530	60990.34	3.0860	3.0860	0.0642	25.20	-0.02	0.050			
0.9530	60994.44	3.0850	3.0850	0.0640	25.21	-0.01	0.050			
0.9531	60998.53	3.0840	3.0840	0.0638	25.21	-0.01	0.050			
0.9532	61002.60	3.0830	3.0830	0.0636	25.21	-0.01	0.050			
0.9532	61006.74	3.0820	3.0820	0.0631	25.21	-0.01	0.050			
0.9533	61010.77	3.0810	3.0811	0.0629	25.21	-0.01	0.050			
0.9534	61014.86	3.0800	3.0800	0.0628	25.21	-0.01	0.050			
0.9534	61018.88	3.0790	3.0789	0.0625	25.21	-0.01	0.050			
0.9535	61022.87	3.0780	3.0780	0.0622	25.21	-0.01	0.050			
0.9535	61026.84	3.0770	3.0771	0.0619	25.21	-0.01	0.050			
0.9536	61030.80	3.0760	3.0760	0.0617	25.21	-0.01	0.050			
0.9537	61034.73	3.0750	3.0750	0.0614	25.21	-0.01	0.050			
0.9537	61038.65	3.0740	3.0740	0.0611	25.21	-0.01	0.050			
0.9538	61042.59	3.0730	3.0730	0.0607	25.21	-0.01	0.050			
0.9539	61046.46	3.0720	3.0720	0.0603	25.21	-0.01	0.050			
0.9539	61050.36	3.0710	3.0710	0.0601	25.21	-0.01	0.050			
0.9540	61054.20	3.0700	3.0700	0.0598	25.21	-0.01	0.050			
0.9540	61058.02	3.0690	3.0690	0.0595	25.21	-0.01	0.050			
0.9541	61061.81	3.0680	3.0680	0.0591	25.21	-0.01	0.050			
0.9541	61065.59	3.0670	3.0671	0.0588	25.21	-0.01	0.050			
0.9542	61069.34	3.0660	3.0660	0.0585	25.21	-0.01	0.050			
0.9543	61073.07	3.0650	3.0650	0.0581	25.21	-0.01	0.050			
0.9543	61076.78	3.0640	3.0640	0.0578	25.21	-0.01	0.050			
0.9544	61080.91	3.0630	3.0629	0.0561	25.21	-0.01	0.050			
0.9544	61084.68	3.0620	3.0619	0.0565	25.21	-0.01	0.050			
0.9545	61088.27	3.0610	3.0609	0.0558	25.21	-0.01	0.050			
0.9546	61091.82	3.0600	3.0599	0.0551	25.21	-0.01	0.050			
0.9546	61095.33	3.0590	3.0589	0.0545	25.21	-0.01	0.050			
0.9547	61098.80	3.0580	3.0580	0.0538	25.21	-0.01	0.050			
0.9547	61102.22	3.0570	3.0570	0.0532	25.22	-0.00	0.050			
0.9548	61105.60	3.0560	3.0560	0.0525	25.22	-0.00	0.050			
0.9548	61108.94	3.0550	3.0551	0.0518	25.22	-0.00	0.050			
0.9549	61112.24	3.0540	3.0542	0.0512	25.22	-0.00	0.050			
0.9549	61116.00	3.0530	3.0531	0.0512	25.22	-0.00	0.050			
0.9550	61119.25	3.0520	3.0521	0.0503	25.22	-0.00	0.050			
0.9550	61122.44	3.0510	3.0512	0.0495	25.22	-0.00	0.050			
0.9551	61125.58	3.0500	3.0502	0.0486	25.22	-0.00	0.050			
0.9551	61128.67	3.0490	3.0493	0.0478	25.22	0.00	0.050			
0.9552	61131.70	3.0480	3.0484	0.0469	25.22	0.00	0.050			
0.9552	61134.68	3.0470	3.0475	0.0461	25.22	0.00	0.050			
0.9553	61137.60	3.0460	3.0465	0.0452	25.22	0.00	0.050			
0.9553	61140.47	3.0450	3.0456	0.0444	25.22	0.00	0.050			
0.9554	61143.28	3.0440	3.0447	0.0435	25.22	0.00	0.050			
0.9554	61146.04	3.0430	3.0438	0.0427	25.22	0.00	0.050			
0.9554	61148.75	3.0420	3.0430	0.0419	25.22	0.00	0.050			
0.9555	61151.40	3.0410	3.0420	0.0410	25.22	0.00	0.050			
0.9555	61153.99	3.0400	3.0410	0.0402	25.23	0.01	0.050			
0.9556	61156.54	3.0390	3.0399	0.0393	25.23	0.01	0.050			
