Ah_balance (normalized)	Ah_balance (mAh)	Voltage - fit (V)	Voltage -  interpolate (V)	dQ/dV (1/V)	Temperature (°C)	Temperature - diff (°C)	Current (C)	R_DC 0ms (mOhm)	R_DC 50ms (mOhm)	R_DC 50 ms PEC (mOhm)
0.1813	11600.64	3.9290	3.9288	-0.0895	25.81	-0.01	-1.500			
0.1816	11621.39	3.9260	3.9258	-0.1214	25.81	-0.01	-1.500			
0.1820	11647.45	3.9230	3.9230	-0.1501	25.81	-0.01	-1.500			
0.1825	11679.55	3.9200	3.9200	-0.1761	25.82	-0.00	-1.500			
0.1831	11716.28	3.9170	3.9170	-0.1992	25.82	-0.00	-1.500			
0.1837	11758.08	3.9140	3.9141	-0.2242	25.82	-0.00	-1.500			
0.1844	11803.06	3.9110	3.9110	-0.2471	25.82	-0.00	-1.500			
0.1852	11852.65	3.9080	3.9080	-0.2696	25.82	-0.00	-1.500			
0.1860	11906.40	3.9050	3.9050	-0.2914	25.82	-0.00	-1.500			
0.1869	11964.40	3.9020	3.9021	-0.3140	25.82	-0.00	-1.500			
0.1879	12027.25	3.8990	3.8990	-0.3375	25.82	-0.00	-1.500			
0.1890	12094.59	3.8960	3.8960	-0.3581	25.82	0.00	-1.500			
0.1901	12165.46	3.8930	3.8930	-0.3785	25.82	0.00	-1.500			
0.1913	12240.13	3.8900	3.8901	-0.3981	25.82	0.00	-1.500			
0.1925	12318.96	3.8870	3.8870	-0.4170	25.82	0.00	-1.500			
0.1938	12400.71	3.8840	3.8840	-0.4363	25.82	0.00	-1.500			
0.1951	12486.37	3.8810	3.8810	-0.4524	25.83	0.01	-1.500			
0.1965	12574.80	3.8780	3.8780	-0.4700	25.83	0.01	-1.500			
0.1979	12667.48	3.8750	3.8750	-0.4881	25.83	0.01	-1.500			
0.1994	12762.68	3.8720	3.8720	-0.5030	25.83	0.01	-1.500			
0.2010	12861.25	3.8690	3.8690	-0.5163	25.83	0.01	-1.500			
0.2025	12961.83	3.8660	3.8661	-0.5291	25.83	0.01	-1.500			
0.2041	13065.15	3.8630	3.8630	-0.5394	25.83	0.01	-1.500			
0.2058	13170.48	3.8600	3.8599	-0.5485	25.83	0.01	-1.500			
0.2074	13276.03	3.8570	3.8570	-0.5595	25.84	0.02	-1.500			
0.2091	13385.19	3.8540	3.8540	-0.5666	25.84	0.02	-1.500			
0.2109	13495.04	3.8510	3.8509	-0.5763	25.84	0.02	-1.500			
0.2126	13606.70	3.8480	3.8481	-0.5824	25.84	0.02	-1.500			
0.2144	13718.96	3.8450	3.8451	-0.5896	25.84	0.02	-1.500			
0.2161	13833.19	3.8420	3.8419	-0.5951	25.84	0.02	-1.500			
0.2179	13947.90	3.8390	3.8389	-0.6010	25.85	0.03	-1.500			
0.2197	14063.62	3.8360	3.8360	-0.6021	25.85	0.03	-1.500			
0.2216	14180.18	3.8330	3.8330	-0.6054	25.85	0.03	-1.500			
0.2234	14296.42	3.8300	3.8301	-0.6092	25.85	0.03	-1.500			
0.2252	14413.98	3.8270	3.8268	-0.6144	25.85	0.03	-1.500			
0.2271	14531.28	3.8240	3.8240	-0.6180	25.86	0.04	-1.500			
0.2289	14651.18	3.8210	3.8210	-0.6210	25.86	0.04	-1.500			
0.2308	14771.36	3.8180	3.8180	-0.6243	25.86	0.04	-1.500			
0.2327	14892.21	3.8150	3.8150	-0.6288	25.86	0.04	-1.500			
0.2346	15013.22	3.8120	3.8120	-0.6290	25.87	0.05	-1.500			
0.2365	15133.27	3.8090	3.8090	-0.6305	25.87	0.05	-1.500			
0.2383	15254.12	3.8060	3.8060	-0.6319	25.87	0.05	-1.500			
0.2402	15375.90	3.8030	3.8031	-0.6338	25.87	0.05	-1.500			
0.2422	15498.51	3.8000	3.7999	-0.6370	25.88	0.06	-1.500			
0.2441	15620.80	3.7970	3.7970	-0.6351	25.88	0.06	-1.500			
0.2460	15741.97	3.7940	3.7941	-0.6381	25.89	0.07	-1.500			
0.2479	15864.98	3.7910	3.7910	-0.6418	25.89	0.07	-1.500			
0.2498	15988.05	3.7880	3.7880	-0.6424	25.89	0.07	-1.500			
0.2517	16111.89	3.7850	3.7850	-0.6476	25.90	0.08	-1.500			
0.2537	16236.78	3.7820	3.7821	-0.6512	25.90	0.08	-1.500			
0.2557	16361.86	3.7790	3.7790	-0.6556	25.90	0.08	-1.500			
0.2576	16488.94	3.7760	3.7760	-0.6599	25.91	0.09	-1.500			
0.2596	16615.02	3.7730	3.7730	-0.6619	25.91	0.09	-1.500			
0.2616	16743.92	3.7700	3.7699	-0.6651	25.92	0.10	-1.500			
0.2636	16871.29	3.7670	3.7670	-0.6704	25.92	0.10	-1.500			
0.2656	17000.08	3.7640	3.7640	-0.6707	25.93	0.11	-1.500			
0.2676	17129.23	3.7610	3.7610	-0.6738	25.93	0.11	-1.500			
0.2697	17258.97	3.7580	3.7580	-0.6753	25.94	0.12	-1.500			
0.2717	17388.58	3.7550	3.7550	-0.6803	25.94	0.12	-1.500			
0.2737	17518.86	3.7520	3.7520	-0.6855	25.95	0.13	-1.500			
0.2758	17652.01	3.7490	3.7489	-0.6916	25.96	0.14	-1.500			
0.2779	17784.62	3.7460	3.7461	-0.6928	25.96	0.14	-1.500			
0.2800	17917.79	3.7430	3.7430	-0.7044	25.97	0.15	-1.500			
0.2821	18053.83	3.7400	3.7401	-0.7080	25.97	0.15	-1.500			
0.2842	18190.87	3.7370	3.7369	-0.7119	25.98	0.16	-1.500			
0.2864	18327.22	3.7340	3.7339	-0.7152	25.98	0.16	-1.500			
0.2885	18464.67	3.7310	3.7312	-0.7232	25.99	0.17	-1.500			
0.2907	18604.80	3.7280	3.7280	-0.7298	25.99	0.17	-1.500			
0.2929	18746.79	3.7250	3.7249	-0.7358	26.00	0.18	-1.500			
0.2951	18887.31	3.7220	3.7221	-0.7403	26.00	0.18	-1.500			
0.2974	19030.61	3.7190	3.7190	-0.7509	26.01	0.19	-1.500			
0.2996	19175.17	3.7160	3.7160	-0.7565	26.01	0.19	-1.500			
0.3019	19320.49	3.7130	3.7129	-0.7618	26.02	0.20	-1.500			
0.3042	19466.96	3.7100	3.7100	-0.7679	26.02	0.20	-1.500			
0.3065	19615.50	3.7070	3.7070	-0.7794	26.03	0.21	-1.500			
0.3089	19766.66	3.7040	3.7039	-0.7838	26.03	0.21	-1.500			
0.3112	19917.85	3.7010	3.7010	-0.7895	26.04	0.22	-1.500			
0.3136	20070.40	3.6980	3.6981	-0.7947	26.04	0.22	-1.500			
0.3160	20223.50	3.6950	3.6950	-0.8036	26.04	0.22	-1.500			
0.3184	20378.63	3.6920	3.6919	-0.8075	26.05	0.23	-1.500			
0.3208	20532.36	3.6890	3.6890	-0.8149	26.05	0.23	-1.500			
0.3233	20688.80	3.6860	3.6860	-0.8262	26.06	0.24	-1.500			
0.3258	20849.87	3.6830	3.6829	-0.8361	26.06	0.24	-1.500			
0.3283	21010.26	3.6800	3.6800	-0.8483	26.06	0.24	-1.500			
0.3309	21175.18	3.6770	3.6771	-0.8577	26.07	0.25	-1.500			
0.3335	21341.49	3.6740	3.6740	-0.8649	26.07	0.25	-1.500			
0.3361	21509.72	3.6710	3.6709	-0.8735	26.08	0.26	-1.500			
0.3387	21676.47	3.6680	3.6682	-0.8755	26.08	0.26	-1.500			
0.3413	21844.94	3.6650	3.6650	-0.8833	26.08	0.26	-1.500			
0.3440	22015.26	3.6620	3.6620	-0.8969	26.09	0.27	-1.500			
0.3467	22186.89	3.6590	3.6590	-0.9064	26.09	0.27	-1.500			
0.3494	22362.64	3.6560	3.6560	-0.9190	26.10	0.28	-1.500			
0.3522	22540.42	3.6530	3.6530	-0.9280	26.10	0.28	-1.500			
0.3550	22720.88	3.6500	3.6501	-0.9428	26.11	0.29	-1.500			
0.3579	22903.61	3.6470	3.6470	-0.9518	26.11	0.29	-1.500			
0.3607	23087.34	3.6440	3.6439	-0.9593	26.12	0.30	-1.500			
0.3636	23270.98	3.6410	3.6412	-0.9692	26.12	0.30	-1.500			
0.3665	23456.73	3.6380	3.6380	-0.9826	26.12	0.30	-1.500			
0.3695	23646.94	3.6350	3.6350	-0.9940	26.12	0.30	-1.500			
0.3725	23838.02	3.6320	3.6319	-1.0078	26.13	0.31	-1.500			
0.3755	24034.20	3.6290	3.6291	-1.0240	26.13	0.31	-1.500			
0.3786	24232.61	3.6260	3.6260	-1.0331	26.13	0.31	-1.500			
0.3818	24432.92	3.6230	3.6230	-1.0449	26.13	0.31	-1.500			
0.3849	24634.09	3.6200	3.6201	-1.0544	26.14	0.32	-1.500			
0.3881	24835.97	3.6170	3.6170	-1.0650	26.14	0.32	-1.500			
0.3913	25042.08	3.6140	3.6140	-1.0792	26.14	0.32	-1.500			
0.3945	25248.30	3.6110	3.6110	-1.0920	26.14	0.32	-1.500			
0.3978	25460.09	3.6080	3.6080	-1.1080	26.15	0.33	-1.500			
0.4012	25674.46	3.6050	3.6050	-1.1305	26.15	0.33	-1.500			
0.4046	25894.02	3.6020	3.6020	-1.1433	26.15	0.33	-1.500			
0.4081	26116.28	3.5990	3.5990	-1.1545	26.16	0.34	-1.500			
0.4116	26339.55	3.5960	3.5960	-1.1702	26.16	0.34	-1.500			
0.4151	26565.66	3.5930	3.5931	-1.1838	26.16	0.34	-1.500			
0.4186	26792.83	3.5900	3.5899	-1.2000	26.17	0.35	-1.500			
0.4223	27024.80	3.5870	3.5870	-1.2163	26.17	0.35	-1.500			
0.4259	27258.15	3.5840	3.5840	-1.2309	26.18	0.36	-1.500			
0.4297	27498.01	3.5810	3.5811	-1.2530	26.19	0.37	-1.500			
0.4335	27741.16	3.5780	3.5780	-1.2755	26.19	0.37	-1.500			
0.4373	27986.05	3.5750	3.5751	-1.2947	26.20	0.38	-1.500			
0.4412	28238.69	3.5720	3.5720	-1.3103	26.20	0.38	-1.500			
0.4452	28491.87	3.5690	3.5690	-1.3265	26.21	0.39	-1.500			
0.4492	28747.79	3.5660	3.5660	-1.3535	26.21	0.39	-1.500			
0.4533	29009.73	3.5630	3.5630	-1.3721	26.21	0.39	-1.500			
0.4574	29276.04	3.5600	3.5599	-1.3875	26.22	0.40	-1.500			
0.4616	29542.47	3.5570	3.5570	-1.4079	26.22	0.40	-1.500			
0.4659	29816.23	3.5540	3.5541	-1.4228	26.22	0.40	-1.500			
0.4702	30091.82	3.5510	3.5510	-1.4452	26.23	0.41	-1.500			
0.4745	30369.72	3.5480	3.5480	-1.4618	26.24	0.42	-1.500			
0.4789	30651.22	3.5450	3.5450	-1.4756	26.25	0.43	-1.500			
0.4834	30937.45	3.5420	3.5420	-1.4970	26.25	0.43	-1.500			
0.4879	31228.54	3.5390	3.5390	-1.5162	26.26	0.44	-1.500			
0.4925	31519.12	3.5360	3.5360	-1.5415	26.27	0.45	-1.500			
0.4972	31820.45	3.5330	3.5329	-1.5547	26.27	0.45	-1.500			
0.5018	32117.83	3.5300	3.5300	-1.5748	26.28	0.46	-1.500			
0.5066	32422.94	3.5270	3.5270	-1.5899	26.29	0.47	-1.500	0.370	0.536	
0.5114	32731.25	3.5240	3.5234	-1.6113	26.30	0.48	-1.500			
0.5163	33041.48	3.5210	3.5210	-1.6239	26.31	0.49	-1.500			
0.5212	33354.59	3.5180	3.5180	-1.6344	26.32	0.50	-1.500			
0.5261	33670.37	3.5150	3.5150	-1.6457	26.33	0.51	-1.500			
0.5311	33992.04	3.5120	3.5120	-1.6607	26.34	0.52	-1.500			
0.5361	34310.87	3.5090	3.5089	-1.6559	26.35	0.53	-1.500			
0.5411	34628.53	3.5060	3.5060	-1.6649	26.37	0.55	-1.500			
0.5460	34946.69	3.5030	3.5030	-1.6675	26.38	0.56	-1.500			
0.5510	35266.64	3.5000	3.4999	-1.6720	26.39	0.57	-1.500			
0.5561	35587.97	3.4970	3.4970	-1.6703	26.40	0.58	-1.500			
0.5611	35913.00	3.4940	3.4940	-1.6775	26.42	0.60	-1.500			
0.5662	36234.78	3.4910	3.4910	-1.6768	26.42	0.60	-1.500			
0.5712	36558.10	3.4880	3.4880	-1.6722	26.43	0.61	-1.500			
0.5762	36876.22	3.4850	3.4850	-1.6650	26.44	0.62	-1.500			
0.5812	37197.16	3.4820	3.4820	-1.6627	26.45	0.63	-1.500			
0.5862	37518.67	3.4790	3.4790	-1.6498	26.46	0.64	-1.500			
0.5912	37835.40	3.4760	3.4760	-1.6326	26.47	0.65	-1.500			
0.5960	38144.55	3.4730	3.4730	-1.6201	26.48	0.66	-1.500			
0.6008	38453.46	3.4700	3.4699	-1.5982	26.50	0.68	-1.500			
0.6056	38757.76	3.4670	3.4670	-1.5811	26.52	0.70	-1.500			
0.6103	39061.26	3.4640	3.4640	-1.5706	26.53	0.71	-1.500			
0.6150	39362.02	3.4610	3.4610	-1.5524	26.55	0.73	-1.500			
0.6197	39659.45	3.4580	3.4580	-1.5395	26.56	0.74	-1.500			
0.6243	39954.19	3.4550	3.4549	-1.5219	26.58	0.76	-1.500			
0.6288	40243.86	3.4520	3.4521	-1.4967	26.59	0.77	-1.500			
0.6333	40531.88	3.4490	3.4490	-1.4824	26.60	0.78	-1.500			
0.6377	40813.70	3.4460	3.4461	-1.4607	26.62	0.80	-1.500			
0.6421	41092.39	3.4430	3.4429	-1.4384	26.63	0.81	-1.500			
0.6463	41365.97	3.4400	3.4400	-1.4170	26.65	0.83	-1.500			
0.6505	41633.07	3.4370	3.4370	-1.3967	26.66	0.84	-1.500			
0.6547	41899.10	3.4340	3.4341	-1.3771	26.67	0.85	-1.500			
0.6588	42165.02	3.4310	3.4309	-1.3639	26.69	0.87	-1.500			
0.6629	42423.70	3.4280	3.4280	-1.3461	26.70	0.88	-1.500			
0.6669	42679.98	3.4250	3.4250	-1.3284	26.72	0.90	-1.500			
0.6709	42935.66	3.4220	3.4220	-1.3112	26.74	0.92	-1.500			
0.6748	43187.65	3.4190	3.4190	-1.2897	26.76	0.94	-1.500			
0.6787	43434.95	3.4160	3.4160	-1.2591	26.78	0.96	-1.500			
0.6824	43675.36	3.4130	3.4131	-1.2311	26.79	0.97	-1.500			
0.6860	43906.95	3.4100	3.4099	-1.1997	26.81	0.99	-1.500			
0.6896	44132.80	3.4070	3.4071	-1.1694	26.83	1.01	-1.500			
0.6930	44354.77	3.4040	3.4039	-1.1401	26.84	1.02	-1.500			
0.6964	44569.82	3.4010	3.4010	-1.1100	26.86	1.04	-1.500			
0.6997	44782.18	3.3980	3.3980	-1.0869	26.87	1.05	-1.500			
0.7029	44988.47	3.3950	3.3950	-1.0601	26.89	1.07	-1.500			
0.7061	45188.97	3.3920	3.3919	-1.0310	26.90	1.08	-1.500			
0.7091	45383.88	3.3890	3.3890	-1.0025	26.91	1.09	-1.500			
0.7121	45574.12	3.3860	3.3860	-0.9723	26.93	1.11	-1.500			
0.7150	45759.21	3.3830	3.3830	-0.9433	26.94	1.12	-1.500			
0.7178	45937.91	3.3800	3.3800	-0.9133	26.95	1.13	-1.500			
0.7205	46109.76	3.3770	3.3769	-0.8842	26.97	1.15	-1.500			
0.7231	46275.73	3.3740	3.3740	-0.8529	26.98	1.16	-1.500			
0.7256	46435.75	3.3710	3.3711	-0.8291	26.99	1.17	-1.500			
0.7280	46591.96	3.3680	3.3680	-0.8048	27.01	1.19	-1.500			
0.7304	46743.79	3.3650	3.3650	-0.7866	27.02	1.20	-1.500			
0.7327	46893.19	3.3620	3.3620	-0.7624	27.03	1.21	-1.500			
0.7350	47037.54	3.3590	3.3590	-0.7388	27.03	1.21	-1.500			
0.7371	47177.05	3.3560	3.3561	-0.7223	27.04	1.22	-1.500			
0.7393	47314.37	3.3530	3.3529	-0.7018	27.05	1.23	-1.500			
0.7413	47445.94	3.3500	3.3499	-0.6814	27.06	1.24	-1.500			
0.7434	47574.98	3.3470	3.3470	-0.6628	27.07	1.25	-1.500			
0.7453	47699.97	3.3440	3.3441	-0.6468	27.08	1.26	-1.500			
0.7472	47823.57	3.3410	3.3410	-0.6330	27.09	1.27	-1.500			
0.7491	47943.16	3.3380	3.3380	-0.6163	27.11	1.29	-1.500			
0.7509	48059.05	3.3350	3.3350	-0.5986	27.12	1.30	-1.500			
0.7527	48174.13	3.3320	3.3320	-0.5847	27.13	1.31	-1.500			
0.7544	48284.35	3.3290	3.3290	-0.5679	27.14	1.32	-1.500			
0.7561	48391.19	3.3260	3.3260	-0.5538	27.15	1.33	-1.500			
0.7577	48495.23	3.3230	3.3230	-0.5390	27.16	1.34	-1.500			
0.7593	48597.55	3.3200	3.3199	-0.5219	27.17	1.35	-1.500			
0.7609	48696.18	3.3170	3.3170	-0.5085	27.18	1.36	-1.500			
0.7624	48792.98	3.3140	3.3141	-0.4966	27.19	1.37	-1.500			
0.7639	48886.80	3.3110	3.3109	-0.4844	27.19	1.37	-1.500			
0.7653	48978.41	3.3080	3.3080	-0.4718	27.20	1.38	-1.500			
0.7667	49067.99	3.3050	3.3051	-0.4600	27.21	1.39	-1.500			
0.7680	49155.16	3.3020	3.3019	-0.4491	27.22	1.40	-1.500			
0.7694	49240.88	3.2990	3.2991	-0.4391	27.23	1.41	-1.500			
0.7707	49323.15	3.2960	3.2960	-0.4268	27.23	1.41	-1.500			
0.7719	49403.77	3.2930	3.2930	-0.4169	27.24	1.42	-1.500			
0.7732	49482.44	3.2900	3.2900	-0.4072	27.25	1.43	-1.500			
0.7744	49559.98	3.2870	3.2871	-0.3986	27.26	1.44	-1.500			
0.7756	49636.08	3.2840	3.2840	-0.3894	27.26	1.44	-1.500			
0.7767	49709.92	3.2810	3.2809	-0.3793	27.27	1.45	-1.500			
0.7778	49781.45	3.2780	3.2782	-0.3698	27.28	1.46	-1.500			
0.7789	49851.78	3.2750	3.2749	-0.3605	27.28	1.46	-1.500			
0.7800	49920.21	3.2720	3.2721	-0.3512	27.29	1.47	-1.500			
0.7810	49986.40	3.2690	3.2690	-0.3438	27.29	1.47	-1.500			
0.7821	50051.26	3.2660	3.2661	-0.3366	27.30	1.48	-1.500			
0.7831	50115.34	3.2630	3.2629	-0.3299	27.30	1.48	-1.500			
0.7840	50177.55	3.2600	3.2600	-0.3218	27.31	1.49	-1.500			
0.7850	50238.79	3.2570	3.2570	-0.3156	27.31	1.49	-1.500			
0.7859	50298.84	3.2540	3.2541	-0.3105	27.32	1.50	-1.500			
0.7868	50358.06	3.2510	3.2509	-0.3041	27.32	1.50	-1.500			
0.7877	50415.72	3.2480	3.2480	-0.2974	27.33	1.51	-1.500			
0.7886	50472.26	3.2450	3.2450	-0.2909	27.33	1.51	-1.500			
0.7895	50527.43	3.2420	3.2420	-0.2861	27.34	1.52	-1.500			
0.7903	50581.95	3.2390	3.2390	-0.2813	27.35	1.53	-1.500			
0.7912	50635.25	3.2360	3.2359	-0.2753	27.35	1.53	-1.500			
0.7920	50687.57	3.2330	3.2331	-0.2699	27.36	1.54	-1.500			
0.7928	50739.10	3.2300	3.2300	-0.2654	27.37	1.55	-1.500			
0.7936	50789.47	3.2270	3.2270	-0.2605	27.37	1.55	-1.500			
0.7944	50838.71	3.2240	3.2240	-0.2561	27.38	1.56	-1.500			
0.7951	50886.97	3.2210	3.2210	-0.2511	27.39	1.57	-1.500			
0.7959	50935.16	3.2180	3.2180	-0.2487	27.39	1.57	-1.500			
0.7966	50982.52	3.2150	3.2150	-0.2443	27.40	1.58	-1.500			
0.7973	51029.28	3.2120	3.2121	-0.2409	27.41	1.59	-1.500			
0.7981	51075.30	3.2090	3.2091	-0.2375	27.41	1.59	-1.500			
0.7988	51120.33	3.2060	3.2060	-0.2341	27.42	1.60	-1.500			
0.7994	51164.79	3.2030	3.2030	-0.2304	27.42	1.60	-1.500			
0.8001	51208.38	3.2000	3.2000	-0.2268	27.43	1.61	-1.500			
0.8008	51251.63	3.1970	3.1971	-0.2244	27.43	1.61	-1.500			
0.8015	51294.60	3.1940	3.1940	-0.2219	27.44	1.62	-1.500			
0.8021	51337.15	3.1910	3.1909	-0.2196	27.45	1.63	-1.500			
0.8028	51379.11	3.1880	3.1880	-0.2166	27.45	1.63	-1.500			
0.8034	51420.68	3.1850	3.1850	-0.2130	27.46	1.64	-1.500			
0.8041	51460.78	3.1820	3.1820	-0.2103	27.46	1.64	-1.500			
0.8047	51500.90	3.1790	3.1791	-0.2077	27.47	1.65	-1.500			
0.8053	51540.44	3.1760	3.1760	-0.2051	27.47	1.65	-1.500			
0.8059	51579.35	3.1730	3.1729	-0.2023	27.48	1.66	-1.500			
0.8065	51618.05	3.1700	3.1700	-0.2001	27.49	1.67	-1.500			
0.8071	51656.29	3.1670	3.1670	-0.1981	27.49	1.67	-1.500			
0.8077	51694.17	3.1640	3.1640	-0.1965	27.50	1.68	-1.500			
0.8083	51731.91	3.1610	3.1609	-0.1949	27.50	1.68	-1.500			
0.8089	51768.76	3.1580	3.1580	-0.1916	27.51	1.69	-1.500			
0.8095	51805.41	3.1550	3.1550	-0.1901	27.51	1.69	-1.500			
0.8100	51841.91	3.1520	3.1520	-0.1884	27.52	1.70	-1.500			
0.8106	51877.96	3.1490	3.1491	-0.1865	27.52	1.70	-1.500			
0.8111	51913.38	3.1460	3.1460	-0.1850	27.53	1.71	-1.500			
0.8117	51948.65	3.1430	3.1429	-0.1837	27.53	1.71	-1.500			
0.8122	51983.53	3.1400	3.1400	-0.1823	27.54	1.72	-1.500			
0.8128	52018.54	3.1370	3.1369	-0.1806	27.55	1.73	-1.500			
0.8133	52053.53	3.1340	3.1340	-0.1784	27.55	1.73	-1.500			
0.8139	52087.36	3.1310	3.1309	-0.1764	27.56	1.74	-1.500			
0.8144	52121.14	3.1280	3.1281	-0.1743	27.56	1.74	-1.500			
0.8149	52154.34	3.1250	3.1251	-0.1726	27.57	1.75	-1.500			
0.8154	52186.85	3.1220	3.1219	-0.1708	27.58	1.76	-1.500			
0.8159	52219.34	3.1190	3.1190	-0.1695	27.58	1.76	-1.500			
0.8164	52251.84	3.1160	3.1161	-0.1691	27.59	1.77	-1.500			
0.8169	52284.47	3.1130	3.1129	-0.1675	27.59	1.77	-1.500			
0.8174	52316.74	3.1100	3.1101	-0.1671	27.60	1.78	-1.500			
0.8179	52348.37	3.1070	3.1070	-0.1656	27.61	1.79	-1.500			
0.8184	52380.08	3.1040	3.1041	-0.1647	27.61	1.79	-1.500			
0.8189	52411.66	3.1010	3.1008	-0.1635	27.62	1.80	-1.500			
0.8194	52443.02	3.0980	3.0980	-0.1618	27.62	1.80	-1.500			
0.8199	52474.00	3.0950	3.0951	-0.1607	27.63	1.81	-1.500			
0.8204	52504.70	3.0920	3.0920	-0.1592	27.64	1.82	-1.500			
0.8209	52535.44	3.0890	3.0890	-0.1576	27.64	1.82	-1.500			
0.8213	52565.09	3.0860	3.0860	-0.1561	27.65	1.83	-1.500			
0.8218	52594.83	3.0830	3.0830	-0.1547	27.65	1.83	-1.500			
0.8223	52624.45	3.0800	3.0801	-0.1539	27.66	1.84	-1.500			
0.8227	52653.97	3.0770	3.0770	-0.1528	27.66	1.84	-1.500			
0.8232	52683.21	3.0740	3.0741	-0.1523	27.67	1.85	-1.500			
0.8236	52712.24	3.0710	3.0711	-0.1514	27.67	1.85	-1.500			
0.8241	52741.25	3.0680	3.0679	-0.1508	27.68	1.86	-1.500			
0.8245	52770.31	3.0650	3.0649	-0.1500	27.68	1.86	-1.500			
0.8250	52798.89	3.0620	3.0620	-0.1488	27.69	1.87	-1.500			
0.8254	52827.64	3.0590	3.0590	-0.1480	27.69	1.87	-1.500			
0.8259	52855.93	3.0560	3.0561	-0.1466	27.70	1.88	-1.500			
0.8263	52884.00	3.0530	3.0530	-0.1457	27.70	1.88	-1.500			
0.8267	52911.70	3.0500	3.0500	-0.1444	27.71	1.89	-1.500			
0.8272	52939.24	3.0470	3.0470	-0.1434	27.71	1.89	-1.500			
0.8276	52966.70	3.0440	3.0440	-0.1427	27.72	1.90	-1.500			
0.8280	52994.14	3.0410	3.0410	-0.1413	27.72	1.90	-1.500			
0.8285	53021.09	3.0380	3.0380	-0.1405	27.73	1.91	-1.500			
0.8289	53047.82	3.0350	3.0351	-0.1401	27.73	1.91	-1.500			
0.8293	53074.68	3.0320	3.0320	-0.1396	27.74	1.92	-1.500			
0.8297	53101.29	3.0290	3.0289	-0.1387	27.74	1.92	-1.500			
0.8301	53127.93	3.0260	3.0260	-0.1380	27.75	1.93	-1.500			
0.8305	53154.50	3.0230	3.0231	-0.1372	27.75	1.93	-1.500			
0.8309	53180.75	3.0200	3.0200	-0.1363	27.76	1.94	-1.500			
0.8314	53207.17	3.0170	3.0170	-0.1351	27.76	1.94	-1.500			
0.8318	53232.73	3.0140	3.0140	-0.1341	27.77	1.95	-1.500			
0.8322	53258.12	3.0110	3.0110	-0.1329	27.77	1.95	-1.500			
0.8326	53283.60	3.0080	3.0080	-0.1325	27.78	1.96	-1.500			
0.8330	53308.99	3.0050	3.0050	-0.1322	27.78	1.96	-1.500			
0.8334	53334.44	3.0020	3.0020	-0.1338	27.79	1.97	-1.500			
