Ah_balance (normalized)	Ah_balance (mAh)	Voltage - fit (V)	Voltage -  interpolate (V)	dQ/dV (1/V)	Temperature (°C)	Temperature - diff (°C)	Current (C)	R_DC 0ms (mOhm)	R_DC 50ms (mOhm)	R_DC 50 ms PEC (mOhm)
0.2002	12810.44	3.9350	3.9349	-0.1418	25.62	0.00	-0.750			
0.2007	12842.78	3.9320	3.9318	-0.1910	25.62	0.00	-0.750			
0.2013	12884.59	3.9290	3.9290	-0.2371	25.62	0.00	-0.750			
0.2021	12934.58	3.9260	3.9260	-0.2815	25.62	0.00	-0.750			
0.2030	12993.13	3.9230	3.9231	-0.3250	25.62	0.00	-0.750			
0.2041	13060.51	3.9200	3.9200	-0.3680	25.62	0.00	-0.750			
0.2052	13135.88	3.9170	3.9170	-0.4056	25.62	0.00	-0.750			
0.2065	13217.54	3.9140	3.9141	-0.4444	25.62	0.00	-0.750			
0.2079	13307.69	3.9110	3.9110	-0.4788	25.62	0.00	-0.750			
0.2094	13403.33	3.9080	3.9079	-0.5108	25.62	0.00	-0.750			
0.2110	13505.49	3.9050	3.9050	-0.5385	25.62	0.00	-0.750			
0.2127	13612.03	3.9020	3.9021	-0.5625	25.62	0.00	-0.750			
0.2144	13724.08	3.8990	3.8990	-0.5822	25.62	0.00	-0.750			
0.2162	13838.39	3.8960	3.8960	-0.5991	25.62	0.00	-0.750			
0.2180	13954.70	3.8930	3.8930	-0.6119	25.62	0.00	-0.750			
0.2199	14074.02	3.8900	3.8899	-0.6250	25.62	0.00	-0.750			
0.2218	14195.82	3.8870	3.8870	-0.6354	25.62	0.00	-0.750			
0.2237	14319.16	3.8840	3.8840	-0.6448	25.62	0.00	-0.750			
0.2257	14444.77	3.8810	3.8810	-0.6529	25.62	0.00	-0.750			
0.2277	14571.10	3.8780	3.8780	-0.6592	25.62	0.00	-0.750			
0.2297	14697.70	3.8750	3.8750	-0.6645	25.62	0.00	-0.750			
0.2317	14826.42	3.8720	3.8720	-0.6679	25.62	0.00	-0.750			
0.2337	14955.31	3.8690	3.8690	-0.6705	25.62	0.00	-0.750			
0.2357	15084.06	3.8660	3.8660	-0.6742	25.62	0.00	-0.750			
0.2377	15214.17	3.8630	3.8631	-0.6776	25.62	0.00	-0.750			
0.2398	15344.29	3.8600	3.8599	-0.6805	25.62	0.00	-0.750			
0.2418	15474.02	3.8570	3.8570	-0.6850	25.62	0.00	-0.750			
0.2439	15606.66	3.8540	3.8540	-0.6841	25.63	0.01	-0.750			
0.2459	15739.29	3.8510	3.8509	-0.6877	25.63	0.01	-0.750			
0.2480	15872.21	3.8480	3.8480	-0.6871	25.63	0.01	-0.750			
0.2501	16003.83	3.8450	3.8450	-0.6842	25.63	0.01	-0.750			
0.2521	16134.61	3.8420	3.8420	-0.6857	25.63	0.01	-0.750			
0.2541	16265.52	3.8390	3.8390	-0.6876	25.63	0.01	-0.750			
0.2562	16397.13	3.8360	3.8360	-0.6854	25.62	0.00	-0.750			
0.2583	16530.07	3.8330	3.8330	-0.6898	25.62	0.00	-0.750			
0.2604	16662.56	3.8300	3.8300	-0.6895	25.62	0.00	-0.750			
0.2624	16795.47	3.8270	3.8271	-0.6903	25.62	0.00	-0.750			
0.2645	16927.82	3.8240	3.8240	-0.6907	25.62	0.00	-0.750			
0.2666	17059.43	3.8210	3.8210	-0.6911	25.63	0.01	-0.750			
0.2686	17192.37	3.8180	3.8180	-0.6890	25.63	0.01	-0.750			
0.2707	17325.29	3.8150	3.8150	-0.6913	25.63	0.01	-0.750			
0.2728	17457.92	3.8120	3.8120	-0.6894	25.64	0.02	-0.750			
0.2748	17590.26	3.8090	3.8090	-0.6903	25.64	0.02	-0.750			
0.2769	17722.12	3.8060	3.8060	-0.6904	25.64	0.02	-0.750			
0.2790	17854.73	3.8030	3.8030	-0.6882	25.64	0.02	-0.750			
0.2810	17986.61	3.8000	3.8000	-0.6891	25.64	0.02	-0.750			
0.2831	18119.25	3.7970	3.7970	-0.6953	25.64	0.02	-0.750			
0.2852	18252.19	3.7940	3.7939	-0.6948	25.64	0.02	-0.750			
0.2873	18386.61	3.7910	3.7910	-0.6972	25.64	0.02	-0.750			
0.2894	18520.31	3.7880	3.7880	-0.6995	25.64	0.02	-0.750			
0.2915	18655.05	3.7850	3.7850	-0.7021	25.65	0.03	-0.750			
0.2936	18791.10	3.7820	3.7820	-0.7033	25.65	0.03	-0.750			
0.2957	18925.00	3.7790	3.7790	-0.7026	25.65	0.03	-0.750			
0.2978	19059.70	3.7760	3.7759	-0.7035	25.66	0.04	-0.750			
0.2999	19195.44	3.7730	3.7731	-0.7070	25.66	0.04	-0.750			
0.3020	19330.55	3.7700	3.7699	-0.7100	25.66	0.04	-0.750			
0.3042	19466.94	3.7670	3.7670	-0.7124	25.66	0.04	-0.750			
0.3063	19603.29	3.7640	3.7640	-0.7150	25.66	0.04	-0.750			
0.3085	19741.94	3.7610	3.7610	-0.7214	25.66	0.04	-0.750			
0.3106	19881.33	3.7580	3.7580	-0.7239	25.66	0.04	-0.750			
0.3128	20020.89	3.7550	3.7549	-0.7276	25.66	0.04	-0.750			
0.3150	20160.85	3.7520	3.7521	-0.7306	25.66	0.04	-0.750			
0.3172	20301.06	3.7490	3.7490	-0.7370	25.66	0.04	-0.750			
0.3194	20443.51	3.7460	3.7459	-0.7417	25.65	0.03	-0.750			
0.3217	20585.93	3.7430	3.7430	-0.7478	25.65	0.03	-0.750			
0.3239	20729.91	3.7400	3.7401	-0.7533	25.65	0.03	-0.750			
0.3262	20875.42	3.7370	3.7369	-0.7593	25.65	0.03	-0.750			
0.3285	21021.58	3.7340	3.7340	-0.7664	25.65	0.03	-0.750			
0.3308	21169.10	3.7310	3.7310	-0.7741	25.66	0.04	-0.750			
0.3331	21317.27	3.7280	3.7281	-0.7803	25.66	0.04	-0.750			
0.3355	21469.88	3.7250	3.7249	-0.7908	25.66	0.04	-0.750			
0.3378	21621.88	3.7220	3.7221	-0.7981	25.66	0.04	-0.750			
0.3402	21775.41	3.7190	3.7190	-0.8105	25.65	0.03	-0.750			
0.3427	21932.07	3.7160	3.7160	-0.8184	25.65	0.03	-0.750			
0.3452	22089.99	3.7130	3.7129	-0.8266	25.65	0.03	-0.750			
0.3476	22249.38	3.7100	3.7100	-0.8379	25.64	0.02	-0.750			
0.3502	22411.40	3.7070	3.7070	-0.8498	25.64	0.02	-0.750			
0.3527	22574.72	3.7040	3.7040	-0.8664	25.64	0.02	-0.750			
0.3553	22742.18	3.7010	3.7009	-0.8807	25.64	0.02	-0.750			
0.3580	22912.51	3.6980	3.6980	-0.8935	25.63	0.01	-0.750			
0.3607	23087.68	3.6950	3.6950	-0.9128	25.63	0.01	-0.750			
0.3635	23263.01	3.6920	3.6921	-0.9344	25.63	0.01	-0.750			
0.3663	23444.60	3.6890	3.6890	-0.9517	25.63	0.01	-0.750			
0.3692	23627.89	3.6860	3.6859	-0.9701	25.62	0.00	-0.750			
0.3721	23815.93	3.6830	3.6829	-0.9890	25.62	0.00	-0.750			
0.3751	24009.38	3.6800	3.6801	-1.0120	25.62	-0.00	-0.750			
0.3782	24206.00	3.6770	3.6769	-1.0300	25.62	-0.00	-0.750			
0.3813	24405.29	3.6740	3.6740	-1.0485	25.61	-0.01	-0.750			
0.3845	24605.06	3.6710	3.6710	-1.0668	25.61	-0.01	-0.750			
0.3877	24813.92	3.6680	3.6680	-1.0993	25.61	-0.01	-0.750			
0.3910	25027.13	3.6650	3.6650	-1.1230	25.61	-0.01	-0.750			
0.3945	25246.28	3.6620	3.6620	-1.1493	25.60	-0.02	-0.750			
0.3980	25469.64	3.6590	3.6590	-1.1789	25.60	-0.02	-0.750			
0.4015	25699.05	3.6560	3.6559	-1.2066	25.60	-0.02	-0.750			
0.4052	25933.38	3.6530	3.6530	-1.2260	25.59	-0.03	-0.750			
0.4089	26169.24	3.6500	3.6500	-1.2482	25.58	-0.04	-0.750			
0.4127	26410.59	3.6470	3.6471	-1.2771	25.58	-0.04	-0.750			
0.4166	26660.34	3.6440	3.6439	-1.3083	25.58	-0.04	-0.750			
0.4205	26914.55	3.6410	3.6410	-1.3328	25.58	-0.04	-0.750			
0.4246	27172.33	3.6380	3.6381	-1.3626	25.58	-0.04	-0.750			
0.4287	27438.04	3.6350	3.6350	-1.3935	25.57	-0.05	-0.750			
0.4330	27709.46	3.6320	3.6320	-1.4231	25.57	-0.05	-0.750			
0.4373	27985.01	3.6290	3.6291	-1.4482	25.56	-0.06	-0.750			
0.4417	28265.62	3.6260	3.6259	-1.4801	25.56	-0.06	-0.750			
0.4461	28552.36	3.6230	3.6230	-1.5100	25.56	-0.06	-0.750			
0.4507	28844.16	3.6200	3.6201	-1.5449	25.56	-0.06	-0.750			
0.4554	29145.41	3.6170	3.6169	-1.5770	25.56	-0.06	-0.750			
0.4602	29450.56	3.6140	3.6142	-1.6048	25.56	-0.06	-0.750			
0.4650	29762.85	3.6110	3.6109	-1.6327	25.55	-0.07	-0.750			
0.4700	30078.71	3.6080	3.6080	-1.6683	25.55	-0.07	-0.750			
0.4750	30398.81	3.6050	3.6050	-1.6992	25.54	-0.08	-0.750			
0.4801	30729.11	3.6020	3.6021	-1.7299	25.53	-0.09	-0.750			
0.4854	31064.56	3.5990	3.5990	-1.7639	25.52	-0.10	-0.750			
0.4908	31408.91	3.5960	3.5961	-1.8000	25.52	-0.10	-0.750			
0.4962	31756.89	3.5930	3.5930	-1.8336	25.52	-0.10	-0.750			
0.5018	32115.25	3.5900	3.5899	-1.8691	25.52	-0.10	-0.750			
0.5074	32474.01	3.5870	3.5870	-1.8859	25.51	-0.11	-0.750			
0.5131	32838.90	3.5840	3.5840	-1.9149	25.50	-0.12	-0.750			
0.5189	33211.21	3.5810	3.5810	-1.9382	25.50	-0.12	-0.750			
0.5248	33584.82	3.5780	3.5780	-1.9408	25.50	-0.12	-0.750			
0.5306	33956.30	3.5750	3.5751	-1.9842	25.49	-0.13	-0.750			
0.5366	34340.70	3.5720	3.5721	-2.0084	25.49	-0.13	-0.750	0.395	0.561	
0.5426	34728.85	3.5690	3.5690	-2.0398	25.49	-0.13	-0.750			
0.5488	35126.09	3.5660	3.5660	-2.0441	25.50	-0.12	-0.750			
0.5550	35522.64	3.5630	3.5630	-2.0725	25.50	-0.12	-0.750			
0.5612	35914.20	3.5600	3.5599	-2.0648	25.50	-0.12	-0.750			
0.5674	36314.69	3.5570	3.5569	-2.0922	25.50	-0.12	-0.750			
0.5737	36718.60	3.5540	3.5541	-2.0938	25.50	-0.12	-0.750			
0.5801	37124.23	3.5510	3.5510	-2.1098	25.51	-0.11	-0.750			
0.5864	37532.18	3.5480	3.5480	-2.1037	25.52	-0.10	-0.750			
0.5927	37931.00	3.5450	3.5450	-2.0765	25.52	-0.10	-0.750			
0.5990	38333.00	3.5420	3.5420	-2.0600	25.52	-0.10	-0.750			
0.6051	38726.75	3.5390	3.5390	-2.0405	25.53	-0.09	-0.750			
0.6111	39112.75	3.5360	3.5360	-2.0071	25.54	-0.08	-0.750			
0.6172	39497.97	3.5330	3.5329	-1.9825	25.55	-0.07	-0.750			
0.6231	39875.51	3.5300	3.5300	-1.9636	25.56	-0.06	-0.750			
0.6289	40251.95	3.5270	3.5270	-1.9344	25.57	-0.05	-0.750			
0.6347	40621.09	3.5240	3.5240	-1.9050	25.59	-0.03	-0.750			
0.6404	40987.17	3.5210	3.5211	-1.8532	25.60	-0.02	-0.750			
0.6459	41337.81	3.5180	3.5179	-1.8138	25.61	-0.01	-0.750			
0.6512	41679.91	3.5150	3.5151	-1.7654	25.62	0.00	-0.750			
0.6565	42017.13	3.5120	3.5118	-1.7180	25.64	0.02	-0.750			
0.6616	42341.82	3.5090	3.5091	-1.6650	25.65	0.03	-0.750			
0.6665	42654.46	3.5060	3.5060	-1.6178	25.66	0.04	-0.750			
0.6713	42961.81	3.5030	3.5031	-1.5777	25.67	0.05	-0.750			
0.6759	43260.52	3.5000	3.4999	-1.5289	25.69	0.07	-0.750			
0.6804	43547.57	3.4970	3.4969	-1.4838	25.70	0.08	-0.750			
0.6848	43829.92	3.4940	3.4940	-1.4458	25.71	0.09	-0.750			
0.6892	44106.38	3.4910	3.4909	-1.3948	25.73	0.11	-0.750			
0.6933	44370.74	3.4880	3.4880	-1.3458	25.74	0.12	-0.750			
0.6972	44619.77	3.4850	3.4850	-1.2962	25.75	0.13	-0.750			
0.7010	44863.16	3.4820	3.4820	-1.2611	25.76	0.14	-0.750			
0.7047	45099.93	3.4790	3.4789	-1.2316	25.77	0.15	-0.750			
0.7083	45329.73	3.4760	3.4760	-1.2014	25.78	0.16	-0.750			
0.7118	45557.77	3.4730	3.4731	-1.1827	25.79	0.17	-0.750			
0.7154	45786.43	3.4700	3.4700	-1.1669	25.80	0.18	-0.750			
0.7189	46008.66	3.4670	3.4670	-1.1449	25.81	0.19	-0.750			
0.7223	46224.67	3.4640	3.4640	-1.1294	25.82	0.20	-0.750			
0.7256	46438.07	3.4610	3.4610	-1.1148	25.82	0.20	-0.750			
0.7289	46651.58	3.4580	3.4579	-1.1038	25.84	0.22	-0.750			
0.7322	46860.78	3.4550	3.4549	-1.0937	25.85	0.23	-0.750			
0.7355	47069.58	3.4520	3.4521	-1.0889	25.86	0.24	-0.750			
0.7387	47279.47	3.4490	3.4490	-1.0867	25.86	0.24	-0.750			
0.7420	47488.67	3.4460	3.4459	-1.0782	25.87	0.25	-0.750			
0.7452	47693.88	3.4430	3.4430	-1.0696	25.87	0.25	-0.750			
0.7484	47898.03	3.4400	3.4401	-1.0613	25.88	0.26	-0.750			
0.7516	48101.82	3.4370	3.4370	-1.0563	25.89	0.27	-0.750			
0.7547	48303.68	3.4340	3.4339	-1.0461	25.89	0.27	-0.750			
0.7579	48503.59	3.4310	3.4311	-1.0379	25.90	0.28	-0.750			
0.7610	48702.68	3.4280	3.4280	-1.0287	25.91	0.29	-0.750			
0.7641	48900.95	3.4250	3.4250	-1.0223	25.91	0.29	-0.750			
0.7671	49096.53	3.4220	3.4220	-1.0039	25.92	0.30	-0.750			
0.7701	49288.31	3.4190	3.4190	-0.9856	25.92	0.30	-0.750			
0.7730	49475.08	3.4160	3.4160	-0.9666	25.93	0.31	-0.750			
0.7759	49659.18	3.4130	3.4129	-0.9497	25.93	0.31	-0.750			
0.7787	49839.23	3.4100	3.4100	-0.9315	25.93	0.31	-0.750			
0.7815	50016.87	3.4070	3.4069	-0.9127	25.94	0.32	-0.750			
0.7842	50190.39	3.4040	3.4040	-0.8927	25.94	0.32	-0.750			
0.7869	50362.17	3.4010	3.4011	-0.8711	25.94	0.32	-0.750			
0.7895	50527.64	3.3980	3.3980	-0.8482	25.94	0.32	-0.750			
0.7920	50687.60	3.3950	3.3950	-0.8227	25.95	0.33	-0.750			
0.7944	50842.41	3.3920	3.3920	-0.7955	25.95	0.33	-0.750			
0.7968	50994.60	3.3890	3.3889	-0.7652	25.96	0.34	-0.750			
0.7990	51138.31	3.3860	3.3861	-0.7330	25.96	0.34	-0.750			
0.8012	51276.36	3.3830	3.3831	-0.7044	25.96	0.34	-0.750			
0.8033	51408.34	3.3800	3.3800	-0.6745	25.97	0.35	-0.750			
0.8052	51533.47	3.3770	3.3769	-0.6402	25.97	0.35	-0.750			
0.8071	51653.34	3.3740	3.3741	-0.6120	25.97	0.35	-0.750			
0.8089	51768.37	3.3710	3.3710	-0.5850	25.98	0.36	-0.750			
0.8106	51878.33	3.3680	3.3679	-0.5590	25.98	0.36	-0.750			
0.8122	51982.26	3.3650	3.3650	-0.5302	25.98	0.36	-0.750			
0.8138	52080.99	3.3620	3.3620	-0.5047	25.99	0.37	-0.750			
0.8152	52175.24	3.3590	3.3590	-0.4816	25.99	0.37	-0.750			
0.8166	52265.57	3.3560	3.3560	-0.4581	25.99	0.37	-0.750			
0.8180	52350.95	3.3530	3.3530	-0.4391	26.00	0.38	-0.750			
0.8193	52432.91	3.3500	3.3500	-0.4193	26.00	0.38	-0.750			
0.8205	52511.24	3.3470	3.3470	-0.4031	26.00	0.38	-0.750			
0.8217	52587.08	3.3440	3.3441	-0.3857	26.00	0.38	-0.750			
0.8228	52659.11	3.3410	3.3410	-0.3712	26.01	0.39	-0.750			
0.8239	52728.88	3.3380	3.3381	-0.3570	26.01	0.39	-0.750			
0.8249	52795.72	3.3350	3.3350	-0.3443	26.01	0.39	-0.750			
0.8259	52860.14	3.3320	3.3319	-0.3311	26.02	0.40	-0.750			
0.8269	52922.53	3.3290	3.3291	-0.3205	26.02	0.40	-0.750			
0.8279	52982.70	3.3260	3.3260	-0.3095	26.02	0.40	-0.750			
0.8288	53041.49	3.3230	3.3230	-0.3008	26.02	0.40	-0.750			
0.8297	53097.71	3.3200	3.3200	-0.2902	26.03	0.41	-0.750			
0.8305	53152.58	3.3170	3.3170	-0.2814	26.03	0.41	-0.750			
0.8313	53205.48	3.3140	3.3140	-0.2735	26.03	0.41	-0.750			
0.8321	53256.94	3.3110	3.3111	-0.2662	26.04	0.42	-0.750			
0.8329	53306.91	3.3080	3.3080	-0.2593	26.04	0.42	-0.750			
0.8337	53355.89	3.3050	3.3050	-0.2537	26.04	0.42	-0.750			
0.8344	53404.10	3.3020	3.3020	-0.2484	26.04	0.42	-0.750			
0.8352	53451.54	3.2990	3.2990	-0.2434	26.05	0.43	-0.750			
0.8359	53497.81	3.2960	3.2960	-0.2380	26.05	0.43	-0.750			
0.8366	53542.97	3.2930	3.2930	-0.2324	26.05	0.43	-0.750			
0.8373	53586.99	3.2900	3.2900	-0.2272	26.05	0.43	-0.750			
0.8380	53629.88	3.2870	3.2870	-0.2226	26.06	0.44	-0.750			
0.8386	53672.00	3.2840	3.2840	-0.2178	26.06	0.44	-0.750			
0.8393	53713.13	3.2810	3.2810	-0.2135	26.06	0.44	-0.750			
0.8399	53753.59	3.2780	3.2780	-0.2102	26.07	0.45	-0.750			
0.8405	53793.63	3.2750	3.2750	-0.2069	26.07	0.45	-0.750			
0.8411	53833.06	3.2720	3.2721	-0.2039	26.07	0.45	-0.750			
0.8418	53872.02	3.2690	3.2689	-0.2002	26.07	0.45	-0.750			
0.8423	53910.22	3.2660	3.2660	-0.1967	26.08	0.46	-0.750			
0.8429	53947.38	3.2630	3.2630	-0.1935	26.08	0.46	-0.750			
0.8435	53984.23	3.2600	3.2600	-0.1904	26.08	0.46	-0.750			
0.8441	54020.44	3.2570	3.2570	-0.1879	26.09	0.47	-0.750			
0.8446	54055.95	3.2540	3.2540	-0.1849	26.09	0.47	-0.750			
0.8452	54091.13	3.2510	3.2510	-0.1828	26.09	0.47	-0.750			
0.8457	54126.06	3.2480	3.2480	-0.1811	26.09	0.47	-0.750			
0.8463	54160.88	3.2450	3.2449	-0.1783	26.10	0.48	-0.750			
0.8468	54194.85	3.2420	3.2420	-0.1764	26.10	0.48	-0.750			
0.8473	54228.25	3.2390	3.2391	-0.1739	26.10	0.48	-0.750			
0.8478	54261.47	3.2360	3.2360	-0.1721	26.10	0.48	-0.750			
0.8483	54294.29	3.2330	3.2330	-0.1700	26.11	0.49	-0.750			
0.8489	54326.68	3.2300	3.2300	-0.1682	26.11	0.49	-0.750			
0.8494	54359.01	3.2270	3.2270	-0.1657	26.11	0.49	-0.750			
0.8499	54390.62	3.2240	3.2241	-0.1635	26.11	0.49	-0.750			
0.8503	54422.06	3.2210	3.2210	-0.1618	26.12	0.50	-0.750			
0.8508	54452.46	3.2180	3.2181	-0.1598	26.12	0.50	-0.750			
0.8513	54482.83	3.2150	3.2150	-0.1579	26.13	0.51	-0.750			
0.8518	54513.04	3.2120	3.2119	-0.1567	26.13	0.51	-0.750			
0.8522	54542.95	3.2090	3.2090	-0.1554	26.13	0.51	-0.750			
0.8527	54572.58	3.2060	3.2061	-0.1541	26.14	0.52	-0.750			
0.8532	54602.41	3.2030	3.2030	-0.1537	26.14	0.52	-0.750			
0.8536	54631.76	3.2000	3.2000	-0.1521	26.14	0.52	-0.750			
0.8541	54660.77	3.1970	3.1970	-0.1504	26.15	0.53	-0.750			
0.8545	54689.40	3.1940	3.1940	-0.1486	26.15	0.53	-0.750			
0.8550	54717.92	3.1910	3.1910	-0.1474	26.15	0.53	-0.750			
0.8554	54746.08	3.1880	3.1880	-0.1454	26.15	0.53	-0.750			
0.8558	54773.72	3.1850	3.1850	-0.1442	26.16	0.54	-0.750			
0.8563	54801.07	3.1820	3.1820	-0.1428	26.16	0.54	-0.750			
0.8567	54828.33	3.1790	3.1790	-0.1418	26.16	0.54	-0.750			
0.8571	54855.51	3.1760	3.1760	-0.1410	26.17	0.55	-0.750			
0.8575	54882.53	3.1730	3.1730	-0.1398	26.17	0.55	-0.750			
0.8580	54909.46	3.1700	3.1701	-0.1386	26.17	0.55	-0.750			
0.8584	54935.94	3.1670	3.1670	-0.1372	26.18	0.56	-0.750			
0.8588	54962.30	3.1640	3.1641	-0.1362	26.18	0.56	-0.750			
0.8592	54988.13	3.1610	3.1610	-0.1349	26.18	0.56	-0.750			
0.8596	55013.77	3.1580	3.1580	-0.1339	26.19	0.57	-0.750			
0.8600	55039.42	3.1550	3.1549	-0.1333	26.19	0.57	-0.750			
0.8604	55064.92	3.1520	3.1521	-0.1321	26.19	0.57	-0.750			
0.8608	55090.32	3.1490	3.1490	-0.1312	26.19	0.57	-0.750			
0.8612	55115.58	3.1460	3.1460	-0.1304	26.20	0.58	-0.750			
0.8616	55140.48	3.1430	3.1431	-0.1290	26.20	0.58	-0.750			
0.8620	55165.00	3.1400	3.1400	-0.1279	26.20	0.58	-0.750			
0.8623	55189.42	3.1370	3.1370	-0.1267	26.21	0.59	-0.750			
0.8627	55213.55	3.1340	3.1340	-0.1254	26.21	0.59	-0.750			
0.8631	55237.54	3.1310	3.1310	-0.1245	26.21	0.59	-0.750			
0.8635	55261.41	3.1280	3.1281	-0.1238	26.22	0.60	-0.750			
0.8638	55285.06	3.1250	3.1249	-0.1229	26.22	0.60	-0.750			
0.8642	55308.56	3.1220	3.1220	-0.1221	26.22	0.60	-0.750			
0.8646	55331.95	3.1190	3.1190	-0.1213	26.23	0.61	-0.750			
0.8649	55355.13	3.1160	3.1161	-0.1202	26.23	0.61	-0.750			
0.8653	55378.12	3.1130	3.1130	-0.1193	26.23	0.61	-0.750			
0.8656	55400.97	3.1100	3.1100	-0.1187	26.23	0.61	-0.750			
0.8660	55423.69	3.1070	3.1070	-0.1179	26.24	0.62	-0.750			
0.8663	55446.23	3.1040	3.1039	-0.1168	26.24	0.62	-0.750			
0.8667	55468.57	3.1010	3.1010	-0.1159	26.24	0.62	-0.750			
0.8670	55490.78	3.0980	3.0981	-0.1149	26.25	0.63	-0.750			
0.8674	55512.74	3.0950	3.0950	-0.1138	26.25	0.63	-0.750			
0.8677	55534.48	3.0920	3.0921	-0.1132	26.25	0.63	-0.750			
0.8681	55556.12	3.0890	3.0890	-0.1122	26.26	0.64	-0.750			
0.8684	55577.40	3.0860	3.0860	-0.1113	26.26	0.64	-0.750			
0.8687	55598.72	3.0830	3.0830	-0.1108	26.26	0.64	-0.750			
0.8691	55619.86	3.0800	3.0799	-0.1104	26.26	0.64	-0.750			
0.8694	55641.03	3.0770	3.0771	-0.1101	26.27	0.65	-0.750			
0.8697	55662.34	3.0740	3.0739	-0.1093	26.27	0.65	-0.750			
0.8701	55683.25	3.0710	3.0710	-0.1084	26.27	0.65	-0.750			
0.8704	55704.08	3.0680	3.0680	-0.1076	26.28	0.66	-0.750			
0.8707	55724.64	3.0650	3.0651	-0.1065	26.28	0.66	-0.750			
0.8710	55744.94	3.0620	3.0620	-0.1058	26.28	0.66	-0.750			
0.8713	55765.16	3.0590	3.0590	-0.1048	26.28	0.66	-0.750			
0.8716	55784.97	3.0560	3.0560	-0.1038	26.29	0.67	-0.750			
0.8720	55804.87	3.0530	3.0530	-0.1034	26.29	0.67	-0.750			
0.8723	55824.69	3.0500	3.0500	-0.1032	26.29	0.67	-0.750			
0.8726	55844.46	3.0470	3.0470	-0.1028	26.30	0.68	-0.750			
0.8729	55864.28	3.0440	3.0440	-0.1021	26.30	0.68	-0.750			
0.8732	55883.82	3.0410	3.0410	-0.1014	26.30	0.68	-0.750			
0.8735	55903.32	3.0380	3.0380	-0.1008	26.30	0.68	-0.750			
0.8738	55922.59	3.0350	3.0350	-0.0999	26.30	0.68	-0.750			
0.8741	55941.64	3.0320	3.0319	-0.0993	26.30	0.68	-0.750			
0.8744	55960.63	3.0290	3.0290	-0.0986	26.30	0.68	-0.750			
0.8747	55979.48	3.0260	3.0260	-0.0978	26.30	0.68	-0.750			
0.8750	55998.08	3.0230	3.0230	-0.0970	26.30	0.68	-0.750			
0.8753	56016.66	3.0200	3.0200	-0.0964	26.30	0.68	-0.750			
0.8755	56035.18	3.0170	3.0170	-0.0959	26.30	0.68	-0.750			
0.8758	56053.47	3.0140	3.0140	-0.0956	26.30	0.68	-0.750			
0.8761	56071.71	3.0110	3.0110	-0.0952	26.30	0.68	-0.750			
0.8764	56089.95	3.0080	3.0081	-0.0948	26.30	0.68	-0.750			
0.8767	56107.98	3.0050	3.0049	-0.0952	26.30	0.68	-0.750			
0.8770	56126.29	3.0020	3.0019	-0.0955	26.30	0.68	-0.750			
